Thu, Sep 28, 2017	1:59 PM
 Notes: furfural_3.9E-9_30s_0.1 L_92817
 waiting time: 50.000
 time(s)	 temp (K)	 MS1=1.879	 MS2=27.844	 MS3=97.084	 MS4=40.816	 MS5=77.304	 MS6=91.453	 MS7=78.423	 MS8=97.084
0.000	99.700	3301.235	8043.308	460.752
0.356	99.700	2976.175	8111.282	460.561
0.716	99.700	2930.018	8129.381	451.582
1.072	99.700	2975.997	8124.095	447.506
1.437	99.700	2999.903	8000.106	439.800
1.802	99.700	2948.550	7994.947	444.806
2.163	99.700	2953.733	8076.664	442.475
2.544	99.700	2965.082	8083.033	439.240
2.910	99.700	2967.845	8010.104	442.029
3.274	99.700	2919.422	8045.116	436.183
3.637	99.700	2971.679	8072.003	433.636
4.003	99.700	2973.793	8027.616	432.795
4.369	99.700	2924.924	7954.726	433.152
4.736	99.700	2932.986	8045.537	426.300
5.130	99.700	2954.816	8038.646	421.766
5.497	99.800	2960.356	7923.152	418.658
5.863	99.800	2917.002	7957.044	425.841
6.224	99.800	2926.656	8071.544	416.900
6.607	99.700	2947.327	8117.790	414.200
6.975	99.700	2994.847	8019.694	405.450
7.359	99.800	2950.422	8006.996	412.977
7.723	99.800	2935.648	8149.339	412.544
8.089	99.800	2974.468	8226.725	408.201
8.455	99.900	2990.109	8258.261	409.997
8.823	100.000	2956.421	8475.596	407.972
9.186	100.100	2973.895	8881.710	411.131
9.553	100.300	3021.033	9356.576	426.898
9.918	100.600	2997.152	9895.582	430.528
10.280	100.800	3009.112	10403.779	429.280
10.647	101.200	3007.774	10416.809	427.128
11.014	101.800	3040.571	10090.081	425.727
11.381	102.300	3015.378	9998.353	423.396
11.744	102.900	3023.835	10157.482	416.556
12.108	103.600	3065.852	10337.550	418.734
12.473	104.700	3082.155	10472.556	430.032
12.835	105.600	3063.675	10692.400	423.676
13.225	107.000	3055.880	10938.010	430.898
13.592	108.100	3098.623	10960.375	420.530
13.957	109.300	3078.691	10787.860	423.230
14.317	111.000	3059.395	10683.230	418.034
14.684	112.400	3055.549	10738.493	415.614
15.052	113.700	3121.613	10641.314	415.550
15.416	115.600	3094.764	10295.609	407.068
15.778	117.000	3058.045	10335.219	394.484
16.146	118.400	3092.675	10274.874	400.292
16.511	119.900	3117.117	10044.739	409.844
16.874	121.800	3061.216	9964.232	399.057
17.241	123.200	3044.748	10036.053	395.045
17.608	124.600	3106.049	9986.635	394.242
17.973	126.400	3104.431	9753.201	394.255
18.336	127.800	3046.773	9747.890	390.549
18.702	129.100	3047.907	9817.813	390.574
19.070	130.900	3101.222	9782.228	386.384
19.432	132.200	3088.791	9617.979	381.837
19.799	133.500	3023.937	9619.125	383.467
20.167	135.300	3054.504	9695.696	378.589
20.530	136.600	3097.108	9657.181	382.537
20.894	137.800	3044.672	9486.398	372.845
21.258	139.500	3042.316	9518.660	373.889
21.627	140.800	3075.341	9549.597	377.634
22.002	142.000	3067.572	9366.485	375.558
22.369	143.700	3028.191	9319.245	381.811
22.737	144.900	3028.114	9356.588	386.256
23.102	146.100	3081.034	9404.872	395.478
23.464	147.700	3070.387	9283.379	396.547
23.832	148.900	3005.151	9199.612	415.092
24.197	150.100	3054.186	9260.148	440.858
24.563	151.700	3068.718	9306.967	471.361
24.930	152.900	3073.380	9185.856	522.167
25.296	154.100	3027.720	9158.906	593.886
25.663	155.600	3049.066	9268.312	681.551
26.030	156.800	3065.292	9233.567	792.243
26.400	157.900	3009.315	9193.358	938.203
26.765	159.500	3039.042	9290.575	1118.730
27.134	160.600	3056.771	9421.379	1299.090
27.497	161.700	3071.406	9450.443	1512.948
27.865	163.200	3012.894	9483.151	1731.353
28.233	164.300	3010.309	9612.667	1891.488
28.612	165.400	3033.922	9603.828	1981.815
28.977	166.900	3005.838	9495.492	2027.870
29.342	168.000	2997.050	9477.738	2011.567
29.706	169.000	3003.979	9552.348	1997.621
30.070	170.500	3036.546	9522.150	1986.897
30.439	171.600	2977.729	9463.091	2065.774
30.801	172.600	2961.579	9542.986	2258.731
31.164	174.000	3005.978	9758.283	2474.996
31.526	175.100	3038.163	9804.364	2704.456
31.892	176.100	3030.089	9865.753	2994.541
32.260	177.500	3016.002	10103.619	3265.356
32.629	178.600	3034.648	10093.048	3348.805
32.997	179.600	3005.673	9892.882	3102.699
33.364	181.000	2951.365	9576.738	2511.116
33.729	182.000	2946.346	9627.658	2304.136
34.090	183.100	2986.517	9573.516	2224.814
34.454	184.400	2973.004	9487.455	2223.871
34.819	185.500	2959.822	9506.369	2249.357
35.188	186.500	2954.829	9624.627	2275.569
35.551	187.900	2987.014	9545.062	2316.121
35.915	188.900	2965.107	9501.516	2376.951
36.279	189.900	2959.083	9615.075	2453.204
36.641	190.900	2981.728	9709.834	2569.819
37.007	192.300	2960.904	9684.539	2690.637
37.376	193.300	2939.443	9740.503	2898.585
37.739	194.300	2948.066	9848.457	3073.252
38.104	195.700	3005.775	9899.492	3261.370
38.472	196.700	3001.139	9876.503	3491.415
38.840	197.700	2967.705	9947.203	3754.066
39.202	199.000	2974.838	10182.993	4040.904
39.571	200.000	2962.789	10273.040	4275.815
39.937	201.000	3017.250	10273.626	4530.073
40.302	202.400	2971.348	10352.235	4746.312
40.662	203.400	2986.288	10514.879	4857.998
41.028	204.400	2974.927	10434.754	4777.580
41.414	205.700	2966.559	10330.481	4527.347
41.777	206.700	2962.547	10243.517	4200.224
42.145	208.000	2962.674	10174.026	3859.894
42.511	209.000	2956.688	9977.159	3552.678
42.876	210.000	2907.042	9834.154	3309.386
43.237	211.000	2906.787	9890.475	3095.274
43.605	212.400	2927.560	9762.041	2891.478
43.972	213.400	2928.706	9597.040	2724.426
44.352	214.700	2871.571	9520.494	2588.096
44.715	215.700	2902.915	9555.646	2479.632
45.083	216.700	2941.443	9517.526	2356.343
45.452	218.000	2919.982	9388.633	2249.650
45.820	219.000	2875.837	9342.489	2164.035
46.188	220.000	2866.463	9435.236	2086.547
46.549	221.300	2919.638	9329.740	1992.514
46.916	222.300	2913.499	9244.533	1906.543
47.277	223.300	2879.658	9280.870	1856.157
47.645	224.600	2875.825	9275.203	1772.084
48.014	225.600	2922.516	9176.521	1715.763
48.380	226.600	2885.530	9121.104	1664.270
48.747	227.900	2859.726	9198.733	1604.154
49.113	228.900	2925.064	9189.779	1542.764
49.482	229.900	2915.473	9034.114	1489.029
49.856	231.200	2868.896	9030.866	1463.556
50.220	232.200	2859.853	9091.950	1414.101
50.587	233.200	2920.606	9092.842	1370.415
50.956	234.500	2928.299	8954.027	1328.894
51.319	235.500	2878.028	8918.531	1305.229
51.688	236.500	2871.660	9031.058	1262.155
52.055	237.800	2925.701	9049.780	1233.854
52.422	238.800	2917.638	8923.677	1194.142
52.790	239.800	2878.155	8927.497	1175.725
53.157	241.100	2897.273	8975.539	1145.489
53.523	242.100	2920.937	8897.274	1072.191
53.897	243.100	2874.169	8873.788	1105.968
54.263	244.400	2826.012	8938.833	1074.598
54.628	245.400	2891.503	8933.636	1053.150
54.997	246.400	2924.593	8817.276	1029.842
55.359	247.700	2851.753	8823.772	1020.875
55.725	248.700	2863.241	8894.166	1000.255
56.109	249.700	2899.795	8881.595	986.729
56.476	251.000	2928.617	8806.603	964.377
56.844	252.000	2849.868	8791.065	952.799
57.212	253.000	2880.945	8830.191	945.145
57.578	254.300	2912.518	8838.724	929.097
57.939	255.300	2906.010	8771.234	914.055
58.306	256.300	2859.153	8780.977	900.325
58.674	257.600	2879.378	8871.024	886.379
59.039	258.600	2887.848	8796.325	880.380
59.402	259.600	2872.360	8739.800	867.962
59.770	260.900	2863.126	8796.758	863.937
60.135	261.900	2902.393	8797.688	860.524
60.495	262.900	2909.016	8679.315	807.222
60.873	264.300	2830.992	8706.393	835.165
61.241	265.200	2861.878	8798.388	829.026
61.610	266.200	2918.377	8799.789	818.850
61.973	267.500	2900.431	8676.628	805.095
62.341	268.500	2857.153	8699.171	808.533
62.711	269.500	2894.662	8791.383	800.930
63.079	270.800	2900.228	8773.870	790.066
63.446	271.800	2889.809	8642.774	771.967
63.813	272.800	2870.819	8636.584	771.241
64.180	274.100	2883.110	8727.879	763.676
64.544	275.100	2936.972	8722.619	746.316
64.912	276.100	2894.522	8614.627	728.396
65.280	277.400	2898.126	8740.552	728.816
65.648	278.400	2946.219	8719.906	718.321
66.013	279.400	2978.468	8623.899	709.304
66.381	280.700	2962.509	8584.479	703.356
66.744	281.700	2990.122	8704.138	694.402
67.110	282.700	3074.131	8680.334	681.895
67.480	284.000	3078.372	8581.716	672.113
67.849	285.000	3121.702	8589.434	672.750
68.217	286.400	3156.077	8675.596	667.579
68.580	287.400	3222.040	8694.319	660.791
68.943	288.300	3227.261	8569.387	643.482
69.307	289.300	3236.164	8606.628	649.149
69.674	290.700	3274.832	8706.304	643.214
70.042	291.600	3311.220	8657.816	626.338
70.408	292.600	3346.704	8591.981	628.465
70.775	293.900	3324.008	8632.942	625.141
71.137	294.900	3372.737	8686.575	617.066
71.504	295.900	3365.172	8573.972	605.005
71.872	297.200	3385.002	8584.314	610.966
72.239	298.200	3374.915	8657.765	598.025
72.600	299.200	3462.453	8668.222	596.739
72.966	300.500	3443.870	8523.561	589.301
73.333	301.500	3397.191	8544.003	593.351
73.698	302.500	3431.172	8651.027	580.806
74.067	303.800	3447.895	8673.826	574.348
74.435	304.800	3477.444	8567.183	568.464
74.802	305.800	3443.004	8555.147	566.273
75.167	307.100	3465.293	8626.955	554.518
75.534	308.100	3479.532	8589.319	553.562
75.903	309.100	3462.937	8600.935	553.219
76.270	310.400	3455.575	8647.945	544.328
76.640	311.400	3496.663	8679.226	542.087
77.007	312.400	3527.116	8586.848	532.127
77.376	313.700	3494.612	8539.125	539.005
77.738	314.700	3480.500	8685.836	536.903
78.105	315.700	3489.836	8671.699	523.683
78.472	317.000	3549.748	8606.221	514.742
78.839	318.000	3447.768	8566.738	521.607
79.200	319.000	3479.379	8656.657	510.883
79.566	320.300	3531.268	8624.459	511.647
79.933	321.300	3534.452	8603.571	508.756
80.302	322.300	3490.155	8604.132	500.999
80.670	323.600	3485.200	8689.975	504.018
81.038	324.600	3567.172	8628.573	500.324
81.406	325.600	3534.223	8593.853	502.999
81.769	326.900	3496.969	8639.628	489.574
82.138	327.900	3516.634	8708.965	492.045
82.506	328.900	3567.669	8582.149	495.548
82.872	330.200	3521.639	8604.144	483.639
83.237	331.200	3481.850	8682.499	482.111
83.602	332.200	3589.524	8672.845	479.780
83.969	333.500	3569.961	8600.667	471.884
84.330	334.500	3509.017	8618.498	473.960
84.694	335.500	3491.301	8684.511	474.545
85.063	336.800	3588.111	8721.333	467.375
85.431	337.800	3591.511	8616.639	470.317
85.795	338.800	3533.777	8596.541	459.427
86.162	340.100	3537.381	8708.380	459.746
86.528	341.100	3595.370	8669.954	467.273
86.896	342.100	3569.719	8647.270	455.810
87.266	343.400	3531.179	8736.998	456.638
87.634	344.400	3588.760	8754.180	450.091
88.001	345.400	3610.972	8655.103	458.727
88.363	346.700	3543.227	8700.101	444.093
88.733	347.700	3523.218	8787.575	450.779
89.101	348.700	3611.062	8825.670	445.723
89.469	350.000	3615.481	8685.798	443.965
89.832	351.000	3544.552	8714.519	441.634
90.192	352.000	3567.044	8792.275	441.507
90.558	353.300	3615.214	8822.103	440.654
90.919	354.300	3611.813	8767.617	431.051
91.285	355.300	3540.158	8820.257	431.700
91.654	356.600	3596.224	8910.838	427.051
92.025	357.600	3623.913	8868.375	428.847
92.388	358.600	3571.133	8823.708	419.562
92.754	359.900	3565.707	8852.938	421.142
93.121	360.900	3612.514	8926.275	421.142
93.486	361.900	3615.086	8811.889	412.430
93.858	363.200	3530.491	8799.305	409.653
94.225	364.200	3544.501	8882.551	412.761
94.589	365.200	3588.926	8967.605	407.705
94.951	366.500	3588.085	8864.974	406.762
95.318	367.500	3511.692	8922.594	403.527
95.688	368.500	3553.327	9095.147	407.208
96.055	369.800	3625.759	9082.551	396.242
96.421	370.800	3582.621	9017.697	397.541
96.788	371.800	3544.794	9047.182	397.121
97.157	373.100	3550.691	9196.912	397.847
97.519	374.100	3588.416	9167.338	396.013
97.903	375.100	3547.392	9166.242	391.262
98.270	376.400	3547.609	9357.467	389.835
98.654	377.400	3569.770	9386.162	399.655
99.015	378.700	3606.477	9322.926	389.058
99.383	379.700	3544.475	9346.909	391.427
99.754	380.700	3564.828	9553.354	397.044
100.121	382.000	3635.312	9568.880	392.739
100.497	383.000	3606.336	9557.480	389.530
100.863	384.000	3591.817	9646.903	392.064
101.229	385.300	3605.190	9830.053	393.936
101.596	386.300	3655.308	9913.057	391.924
101.964	387.300	3659.320	9932.416	385.288
102.331	388.600	3653.245	10014.821	386.244
102.700	389.600	3649.653	10180.840	389.224
103.064	390.600	3725.715	10308.472	386.702
103.433	391.900	3734.249	10246.204	382.525
103.799	392.900	3702.917	10465.016	407.424
104.165	393.900	3761.212	10644.129	386.027
104.528	395.200	3771.999	10740.620	386.817
104.896	396.200	3833.389	10785.835	393.389
105.265	397.200	3818.322	11070.303	393.134
105.627	398.500	3886.831	11223.854	384.983
105.993	399.500	3900.523	11247.938	387.364
106.361	400.400	3881.647	11463.082	386.282
106.728	401.800	3912.431	11666.343	390.943
107.094	402.700	3993.856	11788.359	387.377
107.475	403.700	4016.628	11745.628	383.340
107.841	405.100	4023.468	12023.219	398.280
108.208	406.100	4029.174	12360.798	387.084
108.578	407.000	4109.490	12501.651	388.447
108.947	408.400	4174.140	12510.910	396.458
109.314	409.400	4170.829	12666.613	401.566
109.676	410.400	4172.586	12959.653	393.109
110.042	411.700	4186.010	13060.259	396.853
110.406	412.700	4240.306	13138.919	394.128
110.776	413.600	4211.471	13303.321	396.446
111.140	415.000	4257.067	13501.080	393.567
111.507	415.900	4310.458	13458.833	394.128
111.871	416.900	4284.374	13625.617	403.973
112.239	418.300	4297.671	13876.270	397.388
112.609	419.200	4304.523	14039.539	398.649
112.977	420.200	4359.990	13951.976	387.517
113.345	421.500	4275.242	14040.150	403.527
113.710	422.500	4276.235	14251.537	392.701
114.077	423.500	4320.698	14371.451	398.904
114.446	424.800	4289.469	14270.285	404.813
114.813	425.800	4209.764	14325.498	397.681
115.179	426.800	4174.140	14604.770	396.242
115.544	428.100	4235.823	14516.735	396.344
115.913	429.100	4177.350	14469.470	407.781
116.275	430.100	4107.707	14638.521	399.082
116.641	431.400	4064.785	14697.784	396.509
117.006	432.400	4079.024	14650.748	404.915
117.370	433.400	3970.102	14632.943	395.860
117.733	434.700	3921.691	14787.601	401.553
118.101	435.700	3939.853	14867.039	395.821
118.470	436.700	3890.627	14689.645	405.336
118.840	438.000	3808.935	14741.266	388.282
119.208	439.000	3725.881	14932.491	393.453
119.576	440.000	3801.421	14984.889	391.084
119.944	441.300	3766.688	14904.293	397.286
120.306	442.300	3694.766	14972.051	390.982
120.673	443.300	3661.027	15244.955	390.077
121.042	444.600	3717.360	15405.064	406.762
121.409	445.600	3654.034	15251.183	395.325
121.771	446.600	3602.312	15542.236	396.535
122.138	447.900	3659.498	15623.978	394.484
122.505	448.900	3665.561	15613.471	409.029
122.867	449.900	3633.440	15714.484	397.757
123.235	451.200	3590.836	16066.443	404.559
123.602	452.200	3688.983	16215.701	405.743
123.971	453.200	3713.437	16116.917	402.152
124.335	454.500	3688.907	16285.357	405.094
124.702	455.500	3717.793	16503.367	412.188
125.070	456.500	3797.167	16769.049	434.693
125.438	457.800	3824.474	16621.777	408.341
125.806	458.800	3770.993	16809.984	409.895
126.174	459.800	3863.651	17027.752	404.482
126.541	461.100	3964.294	17112.156	417.346
126.903	462.100	3995.779	17113.443	416.505
127.268	463.100	4002.669	17363.905	418.327
127.637	464.400	4140.783	17517.048	419.779
128.004	465.400	4229.047	17397.555	415.792
128.371	466.400	4226.232	17382.767	414.073
128.738	467.700	4321.615	17582.857	415.614
129.107	468.700	4462.773	17764.262	429.968
129.468	469.700	4545.191	17609.132	415.130
129.836	471.000	4481.891	17604.598	412.914
130.219	472.000	4652.470	17753.284	414.531
130.589	473.300	4758.170	17777.750	420.810
130.952	474.300	4851.286	17496.287	409.895
131.318	475.300	4789.298	17368.477	409.042
131.688	476.600	4877.676	17585.570	419.893
132.056	477.600	4942.797	17407.272	406.100
132.421	478.600	4932.239	17117.263	406.800
132.787	479.900	4909.339	16902.782	402.776
133.158	480.900	4960.896	16942.265	416.798
133.520	481.900	5009.333	16539.525	393.427
133.887	483.200	4861.080	16340.034	378.704
134.255	484.200	4870.760	16288.159	380.920
134.627	485.200	4914.752	16022.120	381.735
134.990	486.500	4847.109	15506.064	380.792
135.355	487.500	4757.571	15317.832	380.678
135.722	488.500	4714.764	15142.897	382.181
136.086	489.800	4725.348	14898.090	366.197
136.469	490.800	4669.626	14388.454	359.854
136.836	491.800	4511.427	14037.998	356.822
137.204	493.100	4439.504	13927.980	370.705
137.567	494.100	4458.774	13628.712	346.302
137.935	495.100	4331.855	13159.756	341.157
138.303	496.400	4266.951	12876.230	343.653
138.667	497.400	4224.513	12747.872	334.050
139.032	498.400	4200.988	12335.669	325.567
139.400	499.700	4121.589	12043.533	321.059
139.770	500.700	4072.681	11877.437	329.477
140.139	501.700	4042.267	11658.803	334.432
140.507	503.000	3997.345	11312.054	305.495
140.875	504.000	3936.796	11008.353	307.163
141.240	505.000	3878.871	10929.871	309.417
141.604	506.300	3923.563	10706.448	302.909
141.969	507.300	3917.297	10425.928	295.955
142.338	508.300	3831.351	10164.601	300.413
142.705	509.600	3817.086	10046.254	292.796
143.071	510.600	3848.979	9868.938	287.613
143.441	511.600	3821.646	9570.637	285.167
143.809	512.900	3762.664	9463.243	293.904
144.172	513.900	3750.551	9419.583	289.192
144.533	514.900	3762.880	9261.740	279.716
144.898	516.200	3759.479	9160.269	282.862
145.263	517.200	3700.357	9126.504	277.882
145.625	518.200	3771.948	9027.288	273.653
145.992	519.500	3748.170	8917.385	278.455
146.361	520.500	3715.118	8871.534	279.640
146.727	521.500	3711.654	8964.892	275.029
147.097	522.800	3744.489	8927.217	276.163
147.461	523.800	3784.659	8795.484	268.699
147.829	524.800	3691.429	8771.056	271.030
148.192	526.100	3701.529	8909.488	270.317
148.559	527.100	3717.424	8873.393	271.272
148.926	528.100	3734.898	8808.883	273.004
149.295	529.400	3683.035	8781.398	265.604
149.667	530.400	3703.299	8855.779	270.431
150.032	531.400	3756.346	8802.617	267.081
150.400	532.700	3725.193	8784.658	256.205
150.764	533.700	3718.952	8843.946	269.743
151.131	534.700	3723.958	8893.861	269.743
151.499	536.000	3775.909	8771.591	266.750
151.866	537.000	3718.545	8761.007	269.017
152.228	538.000	3687.340	8854.046	269.743
152.596	539.300	3742.846	8832.318	274.787
152.965	540.300	3739.471	8757.517	272.889
153.332	541.300	3691.518	8705.285	270.266
153.699	542.600	3608.260	8844.927	269.399
154.062	543.600	3705.350	8816.028	267.425
154.426	544.500	3695.059	8748.385	268.966
154.790	545.900	3624.639	8767.056	264.534
155.158	546.800	3615.698	8810.055	266.241
155.527	547.800	3663.612	8820.690	269.629
155.896	549.200	3599.395	8725.319	264.891
156.264	550.100	3553.162	8808.730	263.210
156.631	551.100	3586.175	8811.468	264.037
156.998	552.500	3564.777	8709.424	273.399
157.367	553.400	3507.107	8711.767	264.814
157.738	554.400	3440.240	8815.429	269.132
158.107	555.800	3497.032	8819.212	262.025
158.474	556.700	3490.626	8738.438	265.591
158.836	557.700	3426.791	8750.372	268.559
159.203	559.000	3384.913	8881.086	268.661
159.571	560.000	3436.177	8865.547	273.781
159.937	561.000	3415.570	8728.643	261.172
160.307	562.300	3314.150	8745.914	267.922
160.674	563.300	3327.510	8889.352	265.196
161.040	564.300	3355.607	8851.423	273.653
161.399	565.600	3355.148	8823.288	261.719
161.765	566.600	3269.712	8911.934	263.210
162.133	567.600	3336.655	8922.428	275.730
162.497	568.900	3333.547	8797.369	263.273
162.860	569.900	3261.803	8809.851	263.133
163.228	570.900	3244.074	8872.259	264.623
163.594	572.200	3283.684	8919.932	268.444
163.965	573.200	3277.672	8820.651	260.942
164.335	574.200	3211.048	8828.319	260.025
164.702	575.500	3246.341	8915.920	261.681
165.071	576.500	3270.260	8942.870	267.438
165.436	577.500	3241.081	8847.882	260.102
165.802	578.800	3200.044	8861.230	264.967
166.169	579.800	3232.190	9000.694	264.929
166.537	580.800	3261.217	8950.741	261.745
166.905	582.100	3212.131	8869.954	260.357
167.274	583.100	3215.162	8958.918	261.414
167.642	584.100	3255.358	9022.295	272.533
168.010	585.400	3252.760	8912.876	265.553
168.379	586.400	3213.341	8902.700	263.095
168.746	587.400	3218.741	9020.219	259.274
169.115	588.700	3265.687	9048.545	261.465
169.479	589.700	3260.631	8917.703	262.968
169.847	590.700	3221.212	8925.905	261.172
170.215	592.000	3223.275	9065.229	270.215
170.581	593.000	3262.974	9054.365	264.228
170.947	594.000	3269.241	8987.805	265.158
171.313	595.300	3260.898	8919.257	261.414
171.680	596.300	3270.107	9053.830	263.273
172.043	597.300	3326.198	9076.832	264.050
172.410	598.600	3276.692	8998.299	262.522
172.789	599.600	3270.196	9113.615	269.081
173.147	600.600	3297.923	9144.463	257.325
