Wed, Oct 04, 2017	2:36 PM
 Notes: GUA_RGA after purficaion_100417
 waiting time: 50.000
 time(s)	 temp (K)	 MS1=1.994	 MS2=17.798	 MS3=26.922	 MS4=27.907	 MS5=28.936	 MS6=30.937	 MS7=78.871	 MS8=125.586
0.000	97.300	1760.647	971.929	190.230	5371.697	397.108	126.293	102.896	101.750
3.691	97.300	1626.494	966.746	189.542	5357.853	398.916	125.541	102.488	101.329
4.645	97.300	1631.830	976.018	192.382	5338.022	402.877	126.344	103.978	101.711
5.608	97.300	1697.054	991.645	191.771	5316.689	392.943	128.305	103.864	101.355
6.607	97.300	1620.380	1012.826	192.077	5292.973	397.044	127.172	103.100	101.202
7.564	97.300	1616.241	1029.740	192.255	5326.177	399.923	128.076	103.456	101.660
8.518	97.300	1622.673	1040.120	191.580	5330.164	403.476	128.089	104.106	101.431
9.476	97.200	1613.834	1055.289	192.777	5364.705	401.629	128.382	103.571	102.132
10.428	97.200	1622.456	1068.701	195.031	5338.532	404.737	128.891	103.138	101.711
11.384	97.200	1627.958	1076.279	194.433	5331.769	409.335	127.706	103.775	101.928
12.340	97.200	1622.138	1094.734	195.974	5370.717	403.718	129.541	104.615	101.215
13.297	97.200	1627.487	1106.732	194.076	5367.736	404.801	129.235	104.857	101.992
14.256	97.200	1625.194	1120.169	195.070	5290.095	406.686	130.445	103.838	101.164
15.211	97.200	1695.283	1133.389	198.139	5308.499	409.093	129.770	102.144	101.520
16.181	97.200	1629.385	1139.872	194.051	5331.246	408.647	130.738	103.571	101.724
17.136	97.200	1616.394	1157.194	196.560	5305.774	402.585	129.553	104.284	101.775
18.092	97.200	1605.848	1171.306	197.044	5303.672	404.126	131.476	103.507	102.718
19.049	97.200	1617.183	1178.425	199.273	5293.012	403.896	130.088	104.271	101.342
20.054	97.200	1598.257	1198.753	199.133	5304.551	405.501	131.668	104.055	102.450
21.009	97.200	1605.988	1200.319	200.419	5265.947	406.711	130.954	103.800	102.004
21.991	97.100	1606.383	1216.227	199.909	5318.574	408.112	130.559	103.176	101.839
22.946	97.100	1603.046	1214.559	199.438	5328.253	403.209	130.585	103.342	101.227
23.901	97.100	1587.813	1244.719	200.381	5303.150	412.672	130.012	102.514	103.342
24.865	97.100	1595.748	1248.794	201.769	5317.873	411.347	131.158	103.061	102.259
25.817	97.100	1601.772	1252.042	201.871	5282.542	415.920	130.776	103.609	102.998
26.773	97.100	1603.976	1267.351	201.858	5310.486	408.329	132.699	103.736	102.450
27.729	97.100	1598.486	1273.299	201.985	5242.066	411.016	134.100	103.444	101.813
28.686	97.100	1596.601	1276.878	204.240	5256.420	413.321	131.706	103.151	101.444
29.679	97.200	1606.981	1298.441	203.055	5258.356	411.691	131.986	103.596	102.667
30.636	97.100	1603.160	1307.331	202.686	5226.489	408.838	132.470	103.380	102.106
31.589	97.100	1592.793	1305.968	206.405	5275.983	407.985	132.597	103.367	101.966
32.546	97.100	1578.706	1317.889	205.068	5235.252	410.316	135.196	103.456	102.476
33.505	97.100	1591.634	1330.257	205.259	5223.356	405.157	133.782	103.902	103.087
34.460	97.100	1599.110	1337.605	203.450	5232.781	409.857	133.833	103.202	102.909
35.414	97.100	1588.412	1342.000	206.163	5282.542	412.226	133.960	103.393	102.539
36.376	97.100	1586.043	1344.700	205.603	5269.666	412.939	134.546	103.507	102.718
37.333	97.100	1585.979	1355.424	207.169	5258.891	413.283	134.864	103.023	102.705
38.326	97.100	1585.355	1361.716	207.449	5280.823	409.322	134.622	103.074	103.291
39.288	97.100	1575.803	1361.843	206.596	5294.387	418.034	134.189	102.909	102.667
40.245	97.100	1575.535	1371.892	208.532	5250.765	416.824	135.297	103.775	102.616
41.211	97.100	1571.154	1380.464	210.952	5222.222	418.887	136.673	103.163	102.234
42.166	97.100	1573.026	1390.793	207.475	5219.166	409.157	135.934	103.673	102.463
43.123	97.100	1579.878	1405.911	207.895	5199.794	415.894	137.144	103.584	103.278
44.080	97.100	1575.484	1408.751	210.748	5217.306	415.346	136.966	103.533	103.125
45.032	97.100	1570.619	1409.235	209.271	5215.485	414.557	136.991	103.176	103.431
45.988	97.100	1554.596	1416.177	212.633	5201.921	417.512	136.647	103.647	103.800
46.944	97.100	1556.571	1434.530	211.461	5213.651	416.786	135.119	102.845	103.087
47.923	97.100	1545.566	1424.595	213.525	5235.023	416.111	138.201	103.915	103.660
48.877	97.100	1563.079	1431.116	212.226	5247.377	419.855	137.603	103.240	102.947
49.833	97.100	1570.542	1424.672	213.397	5251.287	418.378	136.049	103.775	102.960
50.800	97.100	1552.699	1445.330	209.411	5238.793	425.523	136.482	102.361	103.303
51.754	97.100	1573.701	1435.434	214.505	5240.627	425.536	136.202	103.469	103.253
52.740	97.100	1568.823	1442.248	213.194	5211.970	426.924	136.915	104.080	104.704
53.699	97.100	1586.183	1451.928	211.984	5231.329	427.064	138.889	103.826	103.749
54.658	97.100	1550.992	1453.036	210.366	5176.167	426.020	139.029	104.412	103.418
55.606	97.100	1548.738	1466.193	212.748	5207.346	427.815	140.838	103.864	103.889
56.559	97.100	1561.168	1462.372	217.575	5205.614	431.751	139.768	103.762	103.851
57.511	97.100	1544.878	1467.874	215.053	5165.940	427.663	139.768	103.163	103.953
58.498	97.100	1547.438	1480.126	214.875	5202.022	427.573	138.889	104.233	103.380
59.454	97.100	1558.214	1474.293	219.078	5207.652	432.388	141.831	103.100	103.800
60.408	97.100	1558.634	1484.750	215.894	5251.083	430.299	139.819	103.635	104.068
61.363	97.100	1548.037	1479.642	217.358	5250.357	433.572	138.838	104.055	103.838
62.317	97.100	1549.489	1478.929	217.728	5222.490	433.177	142.035	102.998	103.915
63.268	97.100	1555.029	1481.094	216.938	5241.212	432.311	140.889	103.291	104.220
64.226	97.100	1559.067	1482.050	216.327	5194.419	435.559	141.513	103.087	104.297
65.185	97.100	1561.983	1488.736	219.116	5209.524	431.649	140.074	103.189	104.590
66.140	97.100	1556.914	1495.155	220.275	5180.804	432.260	141.869	103.444	104.692
67.095	97.100	1561.652	1499.919	215.550	5152.656	425.103	142.481	104.399	104.131
68.052	97.100	1538.561	1493.729	220.899	5162.387	427.943	140.252	103.278	103.787
69.009	97.100	1548.203	1486.533	219.587	5164.463	422.288	141.666	104.208	103.966
69.963	97.100	1557.296	1486.813	217.855	5140.709	422.568	139.895	103.673	103.991
70.926	97.100	1547.337	1490.468	221.077	5123.146	419.473	139.386	103.673	104.450
71.882	97.100	1547.757	1487.768	220.517	5177.619	414.901	139.399	103.571	104.908
72.837	97.000	1549.285	1481.375	222.326	5181.160	422.950	140.545	103.533	105.201
73.792	97.000	1539.580	1479.222	216.480	5174.384	416.977	139.628	103.635	104.399
74.771	97.000	1542.382	1478.063	217.346	5175.773	414.952	140.226	104.080	105.978
75.727	97.000	1543.210	1488.978	222.287	5165.915	414.328	139.819	103.673	105.099
76.683	97.000	1550.240	1467.403	220.160	5154.999	417.499	139.832	103.596	104.641
77.862	97.000	1536.307	1485.437	219.575	5149.421	418.212	137.297	103.253	105.660
78.816	97.000	1537.924	1487.195	218.925	5149.039	415.563	139.144	103.647	105.380
79.773	97.000	1533.174	1477.897	223.052	5183.771	414.557	139.246	103.775	105.660
80.732	97.000	1546.407	1478.254	221.765	5128.660	416.875	139.067	103.889	105.074
81.689	97.000	1537.389	1476.076	218.581	5147.561	415.716	139.309	103.813	106.067
82.645	97.000	1559.016	1467.428	218.581	5155.866	418.072	138.673	103.011	105.902
83.605	97.000	1546.369	1475.796	221.459	5140.837	409.679	137.857	103.456	106.297
84.557	97.000	1541.338	1472.013	221.982	5108.677	409.106	137.768	103.940	106.080
85.507	97.000	1534.333	1473.223	222.848	5114.408	412.353	138.532	103.469	106.156
86.465	97.000	1531.900	1474.994	225.713	5080.249	405.794	137.399	103.393	105.163
87.418	97.000	1533.237	1472.497	222.529	5134.150	406.189	136.813	104.170	105.520
88.377	97.000	1535.517	1473.529	222.580	5106.614	408.443	137.666	103.087	105.609
89.327	97.000	1519.622	1463.862	226.197	5107.951	409.691	137.284	103.469	105.723
90.277	97.000	1535.364	1454.844	224.414	5156.108	409.004	135.998	102.909	106.742
91.230	97.000	1544.025	1462.257	227.433	5130.253	412.111	138.163	103.698	106.411
92.204	97.000	1534.906	1459.226	225.803	5156.197	408.787	137.628	103.202	106.730
93.155	97.000	1535.466	1457.213	223.332	5104.028	410.481	137.807	104.042	106.781
94.112	97.000	1537.924	1448.540	223.981	5143.613	405.488	138.240	103.902	107.073
95.068	97.000	1533.976	1466.957	225.701	5091.712	414.366	136.877	102.883	106.793
96.021	97.000	1548.610	1449.801	224.376	5097.061	410.710	137.717	103.456	107.889
96.980	97.000	1545.439	1459.697	226.974	5118.662	406.113	137.259	103.520	107.163
97.985	97.000	1532.486	1450.157	226.376	5113.950	404.954	136.775	103.609	108.385
98.940	97.000	1529.684	1460.614	224.223	5072.111	401.184	135.680	102.998	107.468
99.896	97.000	1532.002	1443.445	226.541	5100.971	394.561	136.851	103.367	107.494
100.854	97.000	1520.081	1452.221	229.076	5080.211	402.954	137.717	104.182	107.698
101.806	97.000	1533.760	1429.639	229.025	5101.366	405.603	139.602	103.456	107.290
102.761	97.000	1532.970	1430.696	228.082	5140.174	399.948	136.036	103.100	108.322
103.715	97.000	1531.875	1425.385	227.790	5128.928	403.158	136.928	103.418	108.029
104.672	97.000	1528.028	1429.563	226.529	5117.580	406.469	136.597	103.736	108.895
105.627	97.000	1542.280	1427.907	228.592	5137.245	403.043	135.030	103.253	108.156
106.584	97.000	1538.115	1422.112	228.681	5125.451	402.355	136.711	103.189	108.564
107.538	97.000	1520.641	1423.003	225.764	5070.901	402.546	137.335	103.176	109.633
108.496	97.000	1535.148	1421.373	226.771	5075.524	401.795	135.641	103.826	108.424
109.450	97.000	1518.794	1427.015	228.707	5046.791	402.304	136.214	104.004	109.073
110.408	97.000	1520.692	1417.476	228.414	5061.043	398.980	135.756	104.029	109.875
111.361	96.900	1527.964	1414.865	227.433	5094.845	400.572	137.501	103.495	108.818
112.318	96.900	1519.164	1405.554	230.464	5082.873	399.859	137.182	102.514	109.812
113.287	96.900	1515.203	1406.166	227.178	5107.824	397.452	135.081	103.826	108.589
114.242	96.900	1512.719	1385.622	228.910	5113.453	393.962	135.705	103.303	108.385
115.214	96.900	1518.348	1394.818	230.719	5103.315	399.490	137.004	102.692	109.264
116.171	96.900	1527.850	1389.086	232.285	5115.542	401.413	138.380	102.896	109.162
117.127	96.900	1536.141	1389.328	228.834	5125.120	404.138	136.138	102.705	109.532
118.083	96.900	1523.010	1396.053	227.356	5102.551	399.833	136.304	103.991	110.385
119.039	96.900	1525.608	1378.286	233.597	5094.068	401.018	137.335	103.609	109.532
119.997	96.900	1524.729	1393.200	230.057	5062.813	403.094	135.425	104.029	111.315
120.954	96.900	1531.391	1383.317	229.483	5088.452	400.177	135.909	103.647	110.601
121.915	96.900	1522.755	1387.583	228.707	5045.759	403.005	138.227	103.214	110.589
122.867	96.900	1522.615	1382.985	232.056	5053.121	393.733	135.361	103.202	110.283
123.827	96.900	1533.123	1373.752	233.610	5044.422	397.528	137.068	102.756	109.162
124.778	96.900	1505.217	1373.344	231.687	5054.165	400.483	135.985	103.698	111.276
125.734	96.900	1518.641	1360.531	233.292	5086.223	394.981	134.597	103.036	110.614
126.693	96.900	1506.733	1361.397	234.795	5094.221	393.109	135.017	103.227	110.818
127.648	96.900	1510.057	1349.871	233.814	5082.478	402.699	134.826	103.813	110.627
128.604	96.900	1518.871	1354.965	231.560	5110.193	400.636	134.992	103.635	110.754
129.560	96.900	1529.022	1359.805	232.043	5097.201	394.229	133.947	104.220	110.487
130.518	96.900	1521.354	1346.687	233.712	5064.698	399.133	135.145	102.807	111.417
131.478	96.900	1516.081	1341.745	232.871	5031.227	398.050	135.425	103.635	111.710
132.434	96.900	1525.239	1347.578	231.496	5051.885	398.152	135.425	103.660	111.404
133.392	96.900	1511.382	1349.247	236.374	5059.705	399.324	136.507	103.813	111.251
134.349	96.800	1505.153	1339.554	234.731	5057.757	395.783	136.176	103.520	112.588
135.309	96.900	1504.568	1343.337	235.393	5032.628	394.229	136.584	103.647	112.143
136.266	96.800	1509.165	1336.166	238.514	5047.504	395.401	137.233	103.291	111.633
137.224	96.800	1515.763	1330.944	231.776	5080.733	394.854	134.482	104.462	112.053
138.185	96.800	1499.932	1317.533	237.329	5085.891	394.688	135.272	103.940	113.212
139.184	96.800	1518.629	1317.622	235.126	5123.069	396.344	135.081	103.265	112.665
140.141	96.800	1509.306	1319.825	238.272	5085.267	395.185	135.004	102.883	112.728
141.125	96.900	1514.999	1308.261	237.546	5068.672	397.286	136.647	103.418	112.168
142.108	96.800	1505.434	1313.253	237.036	5080.428	397.694	136.622	103.469	113.098
143.064	96.800	1514.769	1306.987	235.597	5073.894	402.075	134.915	103.367	112.767
144.017	96.800	1526.474	1298.377	238.042	5071.767	400.216	137.042	104.475	113.340
144.976	96.900	1528.983	1308.579	236.336	5077.626	396.344	135.348	103.444	113.353
145.930	96.800	1524.882	1313.037	235.928	5170.576	403.018	136.240	104.004	113.429
146.905	96.800	1535.352	1326.805	239.392	5490.108	409.768	135.972	104.093	113.913
147.861	96.800	1552.342	1328.168	244.398	5926.421	419.562	137.475	104.857	115.607
148.818	96.800	1584.578	1355.245	247.518	6539.197	435.980	140.303	104.959	115.429
149.767	96.800	1599.632	1378.553	251.607	7189.545	454.982	140.507	105.201	117.530
150.720	96.800	1639.994	1383.240	254.396	7849.179	473.297	138.978	103.762	117.237
151.677	96.800	1662.028	1385.265	254.460	7983.981	477.628	139.411	104.628	117.747
152.630	96.800	1658.806	1386.564	255.364	8014.651	476.099	141.513	105.252	118.320
153.584	96.800	1658.437	1390.653	256.829	8048.581	471.922	140.609	104.386	119.046
154.540	96.800	1678.407	1398.868	259.898	8054.427	478.315	140.023	104.310	119.517
155.498	96.800	1676.229	1398.779	255.504	8132.017	480.608	140.851	104.959	118.256
156.445	96.800	1668.371	1402.791	257.669	8040.353	479.653	144.340	105.736	119.619
157.395	96.800	1669.925	1397.097	260.841	8038.340	477.207	140.991	105.290	120.370
158.347	96.800	1690.367	1406.739	259.592	8040.595	480.965	142.570	104.883	119.810
159.301	96.800	1674.803	1398.881	260.955	7990.006	475.412	141.653	105.367	121.109
160.256	96.800	1690.915	1404.803	264.827	8019.822	479.716	141.233	104.832	121.453
161.213	96.800	1682.763	1404.395	263.133	8047.765	472.368	140.456	106.322	121.173
162.168	96.800	1692.328	1391.150	264.203	8078.893	477.335	142.697	105.265	121.657
163.127	96.900	1659.214	1401.975	265.757	8079.670	477.462	142.634	105.800	121.058
164.085	96.900	1667.301	1383.737	265.553	8077.136	482.353	141.780	104.921	123.249
165.040	96.900	1681.502	1394.754	264.496	8116.886	482.760	141.615	104.870	122.332
165.996	96.900	1700.645	1391.646	267.553	8048.530	489.944	142.353	104.845	125.146
166.951	96.900	1696.111	1387.596	267.005	8089.681	483.219	141.946	105.329	123.249
167.907	96.800	1698.251	1383.775	265.591	8030.380	484.798	141.564	105.150	124.357
168.864	96.900	1687.578	1380.731	265.795	8007.149	483.894	142.634	105.125	124.217
169.821	96.900	1697.792	1385.673	267.425	8027.553	481.449	143.309	105.188	124.752
170.775	96.900	1692.226	1379.992	271.119	8011.034	477.398	141.653	105.252	124.484
171.734	96.800	1679.898	1387.571	271.157	8008.486	481.372	143.041	105.902	125.146
172.682	96.800	1699.486	1380.795	273.794	7985.739	482.531	142.621	105.125	125.936
173.643	96.800	1688.469	1381.533	272.380	8070.131	482.175	142.443	104.921	126.535
174.602	96.800	1688.775	1359.907	277.041	8075.238	479.182	142.048	105.762	126.153
175.581	96.800	1679.923	1364.161	273.284	8085.109	479.793	142.328	106.271	126.840
176.539	96.900	1681.464	1363.601	274.252	8105.882	476.023	142.392	105.036	126.789
177.495	96.900	1699.575	1364.976	275.895	8033.819	483.002	142.111	105.430	127.133
178.454	96.900	1698.149	1356.099	275.411	7878.205	472.100	142.022	105.290	126.446
179.411	96.900	1632.645	1306.821	269.667	5604.583	423.536	141.322	104.908	125.669
180.366	96.900	1608.089	1307.509	267.031	5416.441	414.748	141.309	103.787	124.561
181.354	96.900	1590.793	1279.247	265.744	5329.323	412.213	138.138	104.794	123.465
182.311	96.800	1581.649	1265.963	265.324	5313.938	418.263	139.284	104.845	123.223
183.261	96.900	1558.685	1251.214	267.247	5250.918	414.901	137.526	104.819	123.338
184.220	96.900	1543.936	1241.534	266.139	5223.598	409.386	138.634	104.195	123.121
185.179	96.900	1557.004	1241.522	264.598	5215.332	404.559	138.660	104.641	122.459
186.135	96.900	1548.789	1226.735	265.260	5202.583	411.360	138.163	105.099	122.128
187.090	96.900	1553.081	1215.743	262.853	5194.240	406.609	138.227	104.832	122.892
188.049	96.900	1539.491	1209.018	261.197	5219.624	409.360	137.131	104.348	122.166
189.006	96.900	1531.900	1201.567	259.478	5204.774	403.056	136.469	105.303	123.644
189.988	96.900	1538.014	1209.171	263.987	5199.233	408.851	137.208	104.946	122.739
190.949	96.900	1545.859	1207.006	260.255	5147.409	406.711	134.495	105.278	122.026
191.904	96.900	1540.332	1191.544	261.796	5167.927	406.851	137.998	103.838	122.039
192.895	96.900	1547.986	1190.092	261.248	5129.514	406.329	138.329	104.361	122.408
193.851	96.900	1545.299	1197.237	258.230	5135.920	405.488	137.807	104.361	121.618
194.812	96.900	1553.055	1181.495	261.286	5124.254	404.444	135.985	105.188	122.153
195.767	96.900	1521.889	1188.691	262.458	5129.106	402.292	135.094	104.195	121.478
196.723	96.900	1526.627	1186.105	263.184	5148.236	398.445	136.011	104.921	123.529
197.679	96.900	1524.806	1170.529	264.267	5124.215	401.859	138.354	103.928	122.867
198.642	96.900	1527.060	1174.171	265.821	5114.765	397.426	135.578	104.462	123.554
199.596	96.900	1520.896	1172.961	263.222	5158.833	402.776	136.367	104.131	122.701
200.552	96.900	1523.838	1167.421	263.197	5151.191	402.075	134.699	104.539	122.918
201.506	96.900	1535.874	1162.276	261.146	5139.652	408.583	134.928	104.310	122.294
202.463	96.900	1533.747	1157.754	261.936	5166.781	404.903	136.176	104.475	122.102
203.422	96.900	1528.092	1146.482	262.522	5150.758	404.571	136.316	104.768	122.879
204.377	96.900	1528.639	1152.456	262.203	5110.040	403.693	136.877	104.679	121.708
205.335	96.900	1520.272	1149.170	261.643	5113.772	404.075	136.635	104.768	122.548
206.290	96.900	1529.582	1148.902	263.859	5092.209	405.348	135.336	104.119	122.319
207.250	96.900	1522.628	1159.091	262.114	5107.365	400.254	139.271	104.628	122.943
208.201	96.900	1512.706	1148.673	262.407	5073.130	399.808	136.138	104.539	122.472
209.158	96.900	1513.763	1146.622	264.178	5104.690	400.929	136.533	103.902	124.229
210.102	96.900	1503.994	1139.821	259.592	5113.007	403.005	138.048	103.864	123.554
211.057	96.900	1517.240	1145.578	262.687	5148.631	398.432	136.507	104.603	124.892
212.014	96.900	1517.279	1132.039	267.069	5087.853	397.299	134.138	104.157	123.134
212.969	96.900	1531.785	1118.679	260.713	5141.435	400.139	135.922	105.214	123.796
213.928	96.900	1525.086	1125.938	264.611	5107.276	400.801	136.724	105.074	123.070
214.887	96.900	1530.295	1125.302	261.363	5120.637	401.247	138.240	103.928	122.994
215.849	96.900	1522.093	1124.308	264.942	5065.411	408.622	135.756	105.099	124.892
216.806	96.900	1524.105	1110.553	260.700	5104.499	402.559	136.355	104.819	124.115
217.766	96.900	1521.189	1113.418	265.235	5075.473	405.068	136.597	104.781	125.019
218.723	96.900	1513.687	1117.443	265.031	5089.076	402.241	136.520	104.488	123.898
219.681	96.900	1502.211	1117.430	265.451	5104.003	401.400	136.062	104.526	124.140
220.633	96.900	1516.795	1110.311	265.222	5100.997	403.425	136.023	105.367	123.516
221.590	96.900	1509.178	1108.502	263.923	5131.755	404.329	136.546	104.297	122.930
222.547	96.900	1509.751	1116.004	264.470	5136.213	395.465	136.355	103.635	122.905
223.507	96.900	1508.096	1112.514	263.885	5095.024	406.826	137.361	104.335	123.937
224.462	96.900	1512.859	1110.871	265.082	5148.045	397.987	137.144	103.558	124.497
225.411	96.900	1518.896	1095.970	262.878	5126.623	402.202	135.871	104.080	126.369
226.365	96.900	1514.298	1098.351	264.114	5114.905	398.662	138.265	104.348	123.860
227.324	96.900	1530.066	1082.800	263.541	5070.824	401.464	136.507	104.399	124.242
228.279	96.900	1515.521	1097.778	264.037	5094.782	400.114	136.826	104.819	124.000
229.238	96.900	1520.348	1099.740	265.528	5059.578	400.037	137.768	104.093	124.739
230.195	96.900	1508.465	1098.186	267.591	5081.638	396.114	138.927	104.017	125.197
231.156	96.900	1507.726	1091.002	268.393	5056.891	392.918	136.686	104.985	124.752
232.110	96.900	1502.326	1085.233	263.923	5085.420	403.795	136.558	104.246	123.975
233.062	96.900	1515.253	1078.724	264.980	5107.391	401.298	136.902	104.857	125.070
234.021	96.900	1512.286	1084.558	267.744	5152.134	402.432	135.310	104.641	126.051
