Tue, Jun 06, 2017	12:14 PM
 Notes: 6_6_2017_AA_0.01 L
 waiting time: 50.000
 time(ms)	 temp (K)	 MS1=61.297	 MS2=13.681	 MS3=17.903	 MS4=28.270	 MS5=29.393	 MS6=44.784	 MS7=61.297	 MS8=65.626
0.000	84.500	-1140.000
0.133	84.500	-1170.000
0.373	84.500	-1140.000
0.507	84.600	-1150.000
0.639	84.600	-1130.000
0.774	84.500	-1240.000
0.907	84.600	-1060.000
1.040	84.600	-1070.000
1.175	84.500	-1070.000
1.308	84.500	-1170.000
1.441	84.500	-1070.000
1.575	84.600	-1200.000
1.709	84.500	-1080.000
1.841	84.500	-1230.000
1.976	84.600	-1040.000
2.109	84.600	-1010.000
2.242	84.600	-990.000
2.375	84.600	-1140.000
2.508	84.600	-1140.000
2.642	84.600	-1090.000
2.779	84.600	-1120.000
2.913	84.600	-1070.000
3.046	84.600	-1110.000
3.181	84.600	-1290.000
3.314	84.600	-1090.000
3.447	84.600	-990.000
3.581	84.600	-1080.000
3.716	84.600	-1030.000
3.848	84.600	-1020.000
3.982	84.600	-1090.000
4.118	84.600	-1050.000
4.252	84.600	-1100.000
4.388	84.700	-1000.000
4.520	84.700	-1050.000
4.654	84.600	-990.000
4.788	84.600	-1300.000
4.923	84.600	-1090.000
5.056	84.600	-1060.000
5.190	84.600	-1120.000
5.324	84.600	-1090.000
5.458	84.600	-1020.000
5.591	84.600	-1120.000
5.725	84.600	-1130.000
5.857	84.600	-1000.000
5.991	84.600	-1080.000
6.123	84.600	-1020.000
6.256	84.600	-1130.000
6.391	84.600	-1170.000
6.526	84.600	-1130.000
6.661	84.600	-1080.000
6.794	84.600	-1020.000
6.929	84.600	-1010.000
7.063	84.600	-1100.000
7.202	84.600	-1150.000
7.335	84.600	-1060.000
7.470	84.600	-980.000
7.604	84.600	-1200.000
7.737	84.600	-1130.000
7.870	84.600	-1110.000
8.005	84.600	-1010.000
8.138	84.600	-1030.000
8.271	84.700	-980.000
8.405	84.700	-1070.000
8.539	84.700	-1080.000
8.673	84.700	-970.000
8.807	84.600	-1200.000
8.939	84.600	-1110.000
9.074	84.600	-1090.000
9.209	84.600	-940.000
9.343	84.700	-1000.000
9.477	84.700	-1170.000
9.611	84.700	-1100.000
9.745	84.700	-1100.000
9.878	84.800	-1100.000
10.012	84.700	-960.000
10.145	84.800	-1000.000
10.279	84.800	-1100.000
10.412	84.800	-1060.000
10.545	84.800	-1130.000
10.679	84.800	-1150.000
10.812	84.800	-1060.000
10.945	85.000	-1210.000
11.078	85.000	-1120.000
11.212	85.100	-1030.000
11.347	85.200	-1090.000
11.481	85.200	-1120.000
11.615	85.400	-970.000
11.749	85.500	-1090.000
11.882	85.600	-1040.000
12.017	85.700	-1110.000
12.151	85.800	-1000.000
12.283	85.900	-1030.000
12.417	86.100	-1130.000
12.551	86.200	-990.000
12.684	86.400	-1180.000
12.818	86.500	-1050.000
12.953	86.800	-1090.000
13.087	87.000	-1120.000
13.220	87.200	-1030.000
13.353	87.600	-1150.000
13.487	87.800	-1210.000
13.621	88.000	-900.000
13.755	88.100	-1050.000
13.889	88.400	-1090.000
14.024	88.900	-1060.000
14.158	89.100	-1070.000
14.291	89.400	-1180.000
14.426	89.600	-1170.000
14.561	89.900	-1010.000
14.695	90.200	-1090.000
14.828	90.700	-1010.000
14.962	91.000	-1020.000
15.097	91.300	-1010.000
15.230	91.600	-1060.000
15.363	91.900	-1150.000
15.498	92.500	-1050.000
15.632	92.800	-1140.000
15.766	93.100	-1030.000
15.900	93.400	-1060.000
16.032	94.000	-890.000
16.167	94.300	-1000.000
16.301	94.700	-1030.000
16.435	95.000	-1050.000
16.568	95.600	-980.000
16.701	96.000	-1050.000
16.836	96.300	-1100.000
16.970	96.600	-1150.000
17.102	97.300	-1030.000
17.237	97.600	-1170.000
17.370	97.900	-940.000
17.505	98.200	-980.000
17.637	98.500	-1060.000
17.772	99.100	-900.000
17.906	99.400	-1070.000
18.040	99.800	-1040.000
18.172	100.100	-920.000
18.309	100.700	-1020.000
18.443	101.100	-950.000
18.577	101.400	-1000.000
18.710	101.700	-1080.000
18.845	102.300	-1030.000
18.979	102.300	-890.000
19.112	102.900	-1040.000
19.247	103.200	-1070.000
19.380	103.500	-970.000
19.514	104.200	-890.000
19.647	104.500	-1010.000
19.780	104.800	-1060.000
19.914	105.200	-860.000
20.048	105.500	-1010.000
20.182	106.100	-930.000
20.316	106.400	-990.000
20.449	106.700	-980.000
20.583	107.000	-920.000
20.717	107.300	-940.000
20.851	108.000	-950.000
20.986	108.300	-960.000
21.120	108.600	-930.000
21.254	108.900	-1020.000
21.388	109.500	-880.000
21.522	109.800	-950.000
21.655	110.100	-1030.000
21.790	110.500	-1050.000
21.923	110.800	-1130.000
22.056	111.100	-1040.000
22.190	111.700	-940.000
22.323	112.000	-1030.000
22.457	112.300	-970.000
22.590	112.600	-1030.000
22.724	113.300	-950.000
22.858	113.600	-820.000
22.992	113.600	-1090.000
23.125	114.200	-890.000
23.259	114.800	-930.000
23.393	115.200	-950.000
23.528	115.500	-950.000
23.662	115.800	-930.000
23.795	116.400	-890.000
23.930	116.700	-1010.000
24.064	117.100	-970.000
24.198	117.400	-920.000
24.332	117.700	-910.000
24.465	118.300	-1000.000
24.600	118.600	-900.000
24.733	118.900	-960.000
24.867	119.200	-890.000
25.002	119.600	-970.000
25.136	120.200	-880.000
25.270	120.500	-990.000
25.403	120.800	-960.000
25.538	121.100	-1040.000
25.672	121.400	-990.000
25.806	122.100	-840.000
25.941	122.400	-1000.000
26.075	122.700	-960.000
26.209	123.000	-1000.000
26.342	123.300	-850.000
26.477	124.000	-900.000
26.611	124.300	-940.000
26.745	124.600	-980.000
26.878	125.000	-930.000
27.012	125.600	-1030.000
27.147	125.900	-760.000
27.282	126.200	-910.000
27.415	126.500	-950.000
27.550	127.200	-900.000
27.685	127.500	-970.000
27.818	127.800	-940.000
27.953	128.100	-940.000
28.086	128.400	-960.000
28.219	129.100	-840.000
28.353	129.400	-920.000
28.487	129.400	-1000.000
28.620	130.000	-910.000
28.754	130.700	-860.000
28.890	131.000	-970.000
29.024	131.300	-920.000
29.157	131.600	-910.000
29.292	132.000	-930.000
29.426	132.500	-970.000
29.560	132.800	-920.000
29.693	133.200	-910.000
29.828	133.500	-800.000
29.962	134.200	-1000.000
30.097	134.500	-870.000
30.231	134.800	-770.000
30.365	135.100	-920.000
30.498	135.500	-790.000
30.632	135.800	-910.000
30.767	136.400	-780.000
30.902	136.700	-890.000
31.037	137.100	-850.000
31.171	137.400	-870.000
31.305	137.700	-960.000
31.438	138.400	-920.000
31.573	138.700	-940.000
31.707	139.000	-770.000
31.840	139.700	-890.000
31.974	140.000	-870.000
32.108	140.300	-820.000
32.243	140.600	-870.000
32.377	140.900	-890.000
32.510	141.500	-850.000
32.645	141.800	-910.000
32.780	142.200	-970.000
32.913	142.500	-910.000
33.047	142.800	-930.000
33.181	143.500	-790.000
33.315	143.800	-860.000
33.449	144.100	-910.000
33.582	144.400	-950.000
33.717	145.100	-790.000
33.850	145.400	-890.000
33.983	145.700	-800.000
34.119	146.000	-900.000
34.253	146.700	-960.000
34.388	147.000	-810.000
34.521	147.300	-890.000
34.656	147.600	-850.000
34.790	148.000	-890.000
34.924	148.600	-930.000
35.060	148.900	-800.000
35.194	149.200	-810.000
35.327	149.500	-760.000
35.462	149.500	-840.000
35.596	150.500	-820.000
35.730	150.800	-890.000
35.865	151.200	-810.000
36.000	151.500	-890.000
36.133	152.100	-950.000
36.267	152.400	-820.000
36.402	152.700	-860.000
36.535	153.100	-900.000
36.670	153.400	-940.000
36.803	153.700	-830.000
36.939	154.300	-770.000
37.073	154.700	-860.000
37.208	155.000	-810.000
37.342	155.300	-830.000
37.474	155.900	-690.000
37.609	156.300	-820.000
37.742	156.600	-840.000
37.875	156.900	-710.000
38.010	157.600	-880.000
38.144	157.900	-800.000
38.279	158.200	-880.000
38.412	158.600	-750.000
38.546	158.900	-700.000
38.680	159.500	-790.000
38.813	159.900	-840.000
38.948	160.200	-860.000
39.081	160.500	-800.000
39.216	160.800	-720.000
39.349	161.500	-780.000
39.482	161.800	-920.000
39.616	162.100	-670.000
39.750	162.800	-900.000
39.884	163.100	-850.000
40.018	163.400	-650.000
40.151	163.700	-710.000
40.285	164.100	-780.000
40.419	164.700	-760.000
40.553	165.000	-740.000
40.685	165.400	-820.000
40.821	165.700	-930.000
40.955	166.400	-900.000
41.088	166.700	-800.000
41.222	167.000	-560.000
41.356	167.300	-960.000
41.490	167.600	-860.000
41.625	167.900	-890.000
41.758	168.600	-850.000
41.891	168.900	-730.000
42.025	169.300	-850.000
42.157	169.600	-720.000
42.290	170.200	-840.000
42.425	170.500	-910.000
42.560	170.900	-860.000
42.693	171.200	-780.000
42.825	171.500	-910.000
42.962	172.200	-910.000
43.095	172.500	-890.000
43.228	172.800	-770.000
43.363	173.200	-810.000
43.496	173.500	-750.000
43.628	174.100	-680.000
43.762	174.500	-800.000
43.895	174.800	-840.000
44.029	175.100	-900.000
44.162	175.700	-890.000
44.295	176.000	-880.000
44.428	176.400	-710.000
44.562	176.700	-660.000
44.694	177.300	-580.000
44.828	177.600	-750.000
44.963	178.000	-830.000
45.097	178.300	-770.000
45.231	178.600	-800.000
45.365	178.900	-570.000
45.498	179.600	-800.000
45.631	179.900	-770.000
45.764	180.200	-720.000
45.898	180.600	-550.000
46.032	181.200	-780.000
46.165	181.600	-710.000
46.302	181.900	-810.000
46.436	182.200	-690.000
46.569	182.600	-690.000
46.702	183.200	-500.000
46.836	183.500	-760.000
46.970	183.800	-510.000
47.105	184.200	-650.000
47.237	184.500	-840.000
47.371	184.800	-670.000
47.505	185.500	-560.000
47.638	185.800	-760.000
47.771	186.100	-810.000
47.905	186.400	-640.000
48.038	187.100	-600.000
48.173	187.400	-540.000
48.305	187.700	-820.000
48.440	188.100	-520.000
48.574	188.700	-610.000
48.707	189.000	-350.000
48.841	189.300	-650.000
48.975	189.700	-500.000
49.109	190.300	-550.000
49.243	190.600	-250.000
49.375	190.900	-520.000
49.508	191.300	-480.000
49.641	191.600	-300.000
49.776	192.300	-220.000
49.909	192.600	-110.000
50.043	192.900	-540.000
50.177	193.200	-120.000
50.310	193.900	-250.000
50.443	194.200	-290.000
50.576	194.500	-60.000
50.711	194.800	-70.000
50.844	195.200	-30.000
50.977	195.900	-110.000
51.111	195.900	-20.000
51.245	196.500	0.000
51.379	196.800	10.000
51.513	197.100	10.000
51.645	197.800	10.000
51.780	198.100	20.000
51.914	198.400	50.000
52.047	198.800	50.000
52.181	199.100	210.000
52.313	199.400	370.000
52.448	200.100	110.000
52.581	200.400	170.000
52.716	200.700	250.000
52.848	201.000	380.000
52.983	201.700	350.000
53.117	202.000	90.000
53.251	202.400	130.000
53.384	202.700	0.000
53.518	203.300	-20.000
53.652	203.600	-100.000
53.785	204.000	-110.000
53.919	204.300	-220.000
54.053	204.300	-350.000
54.187	205.300	-290.000
54.320	205.600	-250.000
54.453	205.900	-290.000
54.588	206.200	-580.000
54.722	206.900	-370.000
54.855	207.200	-390.000
54.990	207.500	-400.000
55.125	207.900	-510.000
55.258	208.500	-570.000
55.392	208.900	-400.000
55.526	209.200	-440.000
55.660	209.500	-570.000
55.795	209.800	-470.000
55.929	210.200	-510.000
56.063	210.800	-720.000
56.197	211.100	-590.000
56.331	211.400	-710.000
56.464	211.800	-520.000
56.596	212.400	-610.000
56.731	212.700	-750.000
56.865	213.100	-240.000
56.999	213.400	-490.000
57.131	213.700	-580.000
57.265	214.400	-540.000
57.398	214.700	-560.000
57.532	215.000	-620.000
57.664	215.300	-530.000
57.799	216.000	-500.000
57.932	216.300	-640.000
58.066	216.600	-480.000
58.200	217.000	-300.000
58.333	217.300	-530.000
58.466	217.900	-550.000
58.601	218.300	-480.000
58.734	218.600	-550.000
58.867	218.900	-430.000
59.002	219.300	-540.000
59.136	219.900	-400.000
59.268	220.200	-620.000
59.401	220.600	-760.000
59.535	220.900	-700.000
59.669	221.500	-320.000
59.802	221.500	-470.000
59.936	222.100	-540.000
60.070	222.500	-650.000
60.204	222.800	-700.000
60.337	223.500	-510.000
60.471	223.800	-640.000
60.605	224.100	-740.000
60.739	224.500	-710.000
60.872	224.800	-500.000
61.007	225.500	-590.000
61.141	225.800	-700.000
61.274	226.100	-580.000
61.409	226.400	-560.000
61.543	227.100	-690.000
61.677	227.400	-520.000
61.811	227.700	-380.000
61.945	228.000	-540.000
62.079	228.400	-560.000
62.212	229.000	-730.000
62.346	229.300	-640.000
62.480	229.600	-570.000
62.614	230.000	-530.000
62.748	230.600	-460.000
62.882	230.900	-780.000
63.016	231.300	-550.000
63.150	231.600	-680.000
63.284	231.900	-540.000
63.418	232.600	-380.000
63.551	232.900	-680.000
63.684	233.200	-590.000
63.819	233.600	-370.000
63.953	234.200	-720.000
64.087	234.200	-670.000
64.222	234.500	-560.000
64.356	235.200	-620.000
64.491	235.500	-570.000
64.624	235.800	-500.000
64.758	236.500	-500.000
64.893	236.800	-550.000
65.028	237.100	-620.000
65.162	237.800	-550.000
65.295	238.100	-770.000
65.430	238.400	-360.000
65.564	238.800	-610.000
65.698	239.100	-630.000
65.832	239.700	-590.000
65.967	240.100	-660.000
66.101	240.400	-440.000
66.235	240.700	-620.000
66.368	241.000	-360.000
66.504	241.700	-480.000
66.638	242.000	-520.000
66.772	242.300	-530.000
66.905	242.700	-290.000
67.040	243.400	-440.000
67.174	243.700	-690.000
67.307	244.000	-710.000
67.442	244.400	-350.000
67.576	244.700	-500.000
67.711	245.000	-640.000
67.845	245.000	-630.000
67.979	246.000	-660.000
68.113	246.300	-370.000
68.246	246.600	-520.000
68.380	247.300	-280.000
68.514	247.600	-460.000
68.649	248.000	-510.000
68.784	248.300	-480.000
68.918	248.600	-600.000
69.051	249.200	-400.000
69.186	249.600	-610.000
69.320	249.900	-500.000
69.453	250.200	-420.000
69.588	250.900	-700.000
69.721	251.200	-580.000
69.856	251.500	-640.000
69.990	251.800	-650.000
70.124	252.500	-550.000
70.258	252.800	-430.000
70.392	252.800	-460.000
70.526	253.500	-450.000
70.660	253.800	-570.000
70.794	254.100	-550.000
70.928	254.800	-660.000
71.062	255.100	-580.000
71.196	255.400	-690.000
71.332	256.100	-430.000
71.466	256.400	-510.000
71.601	256.700	-660.000
71.736	257.100	-620.000
71.869	257.400	-410.000
72.004	258.000	-620.000
72.137	258.300	-540.000
72.272	258.700	-540.000
72.405	259.000	-470.000
72.540	259.700	-480.000
72.675	260.000	-290.000
72.810	260.300	-520.000
72.945	260.600	-430.000
73.079	261.000	-400.000
73.212	261.300	-390.000
73.347	261.900	-560.000
73.481	262.200	-450.000
73.615	262.600	-490.000
73.749	263.300	-390.000
73.883	263.600	-580.000
74.017	263.900	-600.000
74.151	264.200	-490.000
74.285	264.600	-380.000
74.420	265.200	-450.000
74.553	265.600	-610.000
74.688	265.900	-590.000
74.821	266.200	-580.000
74.957	266.900	-490.000
75.091	267.200	-390.000
75.225	267.500	-550.000
75.359	267.800	-580.000
75.494	268.100	-550.000
75.627	268.500	-440.000
75.762	268.800	-480.000
75.895	269.400	-410.000
76.030	269.700	-390.000
76.164	270.400	-410.000
76.300	270.400	-370.000
76.433	271.100	-590.000
76.568	271.400	-390.000
76.701	271.700	-550.000
76.836	272.000	-610.000
76.970	272.700	-570.000
77.104	273.000	-350.000
77.238	273.300	-450.000
77.370	273.600	-230.000
77.505	274.300	-720.000
77.639	274.600	-330.000
77.773	274.900	-250.000
77.907	275.200	-540.000
78.041	275.900	-260.000
78.175	276.200	-370.000
78.308	276.500	-410.000
78.443	276.900	-360.000
78.577	277.200	-610.000
78.711	277.900	-310.000
78.844	278.200	-340.000
78.979	278.500	-400.000
79.112	278.900	-270.000
79.246	279.200	-450.000
79.379	279.900	-410.000
79.513	280.200	-610.000
79.648	280.500	-400.000
79.781	280.800	-490.000
79.916	281.500	-300.000
80.050	281.800	-400.000
80.184	282.200	-490.000
80.318	282.500	-370.000
80.451	282.800	-220.000
80.586	283.500	-530.000
80.719	283.800	-460.000
80.853	284.100	-480.000
80.988	284.400	-290.000
81.122	285.100	-490.000
81.256	285.400	-380.000
81.388	285.800	-530.000
81.521	286.100	-160.000
81.654	286.800	-310.000
81.788	287.100	-350.000
81.923	287.400	-340.000
82.057	287.700	-290.000
82.190	288.100	-380.000
82.323	288.700	-420.000
82.458	289.000	-300.000
82.590	289.400	-450.000
82.725	289.700	-330.000
82.859	290.000	-450.000
82.996	290.300	-340.000
83.130	291.000	-430.000
83.263	291.300	-340.000
83.396	291.600	-450.000
83.529	292.000	-720.000
83.666	292.600	-540.000
83.800	292.900	-380.000
83.932	293.300	-390.000
84.065	293.600	-450.000
84.200	294.200	-490.000
84.334	294.600	-430.000
84.467	294.900	-440.000
84.600	295.200	-250.000
84.735	295.600	-360.000
84.868	296.200	-240.000
85.000	296.600	-530.000
85.136	296.900	-430.000
85.270	297.200	-450.000
85.404	297.900	-360.000
85.540	297.900	-250.000
85.673	298.500	-410.000
85.807	298.900	-270.000
85.940	299.200	-350.000
86.073	299.800	-150.000
86.206	300.200	-400.000
86.341	300.500	-60.000
86.474	300.800	-380.000
86.607	301.500	-490.000
86.740	301.800	-370.000
86.873	302.100	-350.000
87.007	302.500	-390.000
87.140	302.800	-260.000
87.272	303.100	-490.000
87.407	303.800	-330.000
87.541	304.100	-430.000
87.675	304.400	-420.000
87.807	304.700	-290.000
87.941	305.400	-420.000
88.074	305.700	-220.000
88.209	306.000	-360.000
88.343	306.300	-270.000
88.476	306.700	-320.000
88.612	307.300	-500.000
88.745	307.700	-470.000
88.879	307.700	-340.000
89.014	308.300	-340.000
89.148	308.900	-430.000
89.282	308.900	-380.000
89.415	309.600	-290.000
89.549	309.900	-210.000
89.683	310.300	-250.000
89.817	310.900	-350.000
89.949	311.200	-270.000
90.083	311.600	-190.000
90.218	311.900	-370.000
90.352	312.500	-280.000
90.486	312.900	-360.000
90.620	313.200	-380.000
90.754	313.500	-410.000
90.888	313.800	-310.000
91.022	314.200	-190.000
91.154	314.800	-180.000
91.288	315.200	-200.000
91.422	315.500	-300.000
91.558	316.100	-210.000
91.691	316.400	-480.000
91.824	316.800	-380.000
91.957	317.100	-360.000
92.093	317.400	-380.000
92.225	317.700	-230.000
92.359	318.100	-310.000
92.493	318.700	-570.000
92.626	319.000	-350.000
92.760	319.400	-300.000
92.894	320.000	-160.000
93.028	320.300	-490.000
93.162	320.700	-330.000
93.295	321.000	-180.000
93.429	321.300	-240.000
93.563	322.000	-360.000
93.696	322.300	-240.000
93.828	322.700	-170.000
93.961	323.000	-150.000
94.096	323.300	-340.000
94.229	324.000	-370.000
94.362	324.300	-150.000
94.496	324.600	-400.000
94.631	325.000	-260.000
94.764	325.600	-450.000
94.898	325.900	-280.000
95.032	326.300	-310.000
95.167	326.600	-390.000
95.300	326.900	-270.000
95.435	327.200	-280.000
95.568	327.900	-230.000
95.703	328.200	-320.000
95.837	328.600	-280.000
95.970	329.200	-250.000
96.104	329.500	-280.000
96.237	329.900	-340.000
96.370	330.200	-390.000
96.504	330.500	-410.000
96.638	331.200	-320.000
96.773	331.500	-190.000
96.908	331.900	-210.000
97.040	332.200	-290.000
97.174	332.500	-370.000
97.306	333.100	-220.000
97.440	333.500	-230.000
97.573	333.800	-310.000
97.707	334.100	-320.000
97.841	334.800	-150.000
97.975	334.800	-210.000
98.109	335.400	-100.000
98.243	335.800	-200.000
98.376	336.100	-320.000
98.511	336.700	-290.000
98.645	337.100	-230.000
98.778	337.400	-200.000
98.911	337.700	-160.000
99.046	338.000	-420.000
99.180	338.700	-230.000
99.312	339.000	-150.000
99.447	339.300	-230.000
99.581	339.700	-60.000
99.714	340.300	-160.000
99.848	340.600	-220.000
99.983	340.900	-250.000
100.117	341.300	-230.000
100.250	342.000	-300.000
100.384	342.300	-80.000
100.518	342.600	-60.000
100.651	342.900	-190.000
100.786	343.200	-260.000
100.920	343.900	-290.000
101.053	343.900	-80.000
101.188	344.600	-230.000
101.322	344.900	-390.000
101.455	345.600	-250.000
101.589	345.600	-70.000
101.722	346.200	-270.000
101.857	346.500	-120.000
101.991	346.900	-160.000
102.125	347.500	-240.000
102.259	347.800	-230.000
102.393	348.100	-370.000
102.527	348.500	-100.000
102.660	348.800	-80.000
102.795	349.500	-210.000
102.929	349.800	-180.000
103.063	350.100	-250.000
103.196	350.400	-190.000
103.331	350.800	-230.000
103.465	351.400	-280.000
103.600	351.800	-230.000
103.733	352.100	-150.000
103.868	352.400	-240.000
104.001	353.100	-210.000
104.135	353.400	-170.000
104.269	353.700	-280.000
104.404	354.000	-170.000
104.537	354.400	-280.000
104.670	355.000	-170.000
104.804	355.300	-190.000
104.939	355.700	-180.000
105.075	356.000	-310.000
105.209	356.600	-190.000
105.342	357.000	-120.000
105.476	357.300	-300.000
105.609	357.600	-180.000
105.744	358.000	-180.000
105.876	358.600	-210.000
106.011	358.900	-130.000
106.145	359.300	-60.000
106.279	359.600	-70.000
106.412	360.300	-100.000
106.546	360.600	-120.000
106.679	360.900	-110.000
106.814	361.200	-190.000
106.948	361.600	-200.000
107.081	362.200	-260.000
107.216	362.500	-290.000
107.349	362.900	-210.000
107.483	363.200	-270.000
107.616	363.500	-170.000
107.751	364.200	-150.000
107.885	364.500	-130.000
108.018	364.800	-110.000
108.153	365.200	-190.000
108.286	365.500	-350.000
108.420	366.100	-260.000
108.553	366.400	-280.000
108.687	366.800	-30.000
108.822	367.100	-80.000
108.956	367.800	-290.000
109.090	368.100	-210.000
109.223	368.100	-120.000
109.358	368.800	-130.000
109.491	369.100	-280.000
109.626	369.700	-70.000
109.758	370.000	-280.000
109.893	370.400	-240.000
110.028	370.700	-340.000
110.161	371.400	-80.000
110.295	371.400	-150.000
110.430	372.000	-200.000
110.563	372.300	-120.000
