Fri, Jul 21, 2017	3:37 PM
 Notes: background
 waiting time: 25.000
 time(s)	 temp (K)	 MS1=1.942	 MS2=14.600	 MS3=17.577	 MS4=27.796	 MS5=43.737	 MS6=28.818	 MS7=27.000	 MS8=60.080
0.000	91.300	6744.636	449.416	437.877	1098.071	1264.447	171.953	135.985	146.072
0.746	91.300	6639.624	446.856	449.276	1089.130	1253.392	170.042	133.400	145.563
1.499	91.300	6614.265	446.029	449.964	1076.139	1257.799	167.393	135.310	146.811
2.272	91.300	6536.955	444.296	449.722	1062.536	1241.649	169.202	134.597	146.607
3.075	91.300	6596.205	445.927	449.455	1074.101	1249.813	167.699	133.425	146.951
3.849	91.300	6519.073	451.314	443.889	1061.479	1215.043	171.635	136.036	148.327
4.609	91.300	6535.389	440.323	443.621	1051.647	1232.173	170.386	131.489	144.926
5.365	91.300	6384.105	458.905	434.782	1050.997	1219.195	166.909	134.813	148.416
6.142	91.300	6384.271	435.394	434.120	1036.771	1228.097	161.242	132.572	145.117
6.903	91.300	6420.353	439.342	431.000	1049.532	1207.159	167.750	131.693	147.270
7.660	91.300	6275.094	434.426	431.700	1024.964	1203.440	165.113	135.590	141.538
8.432	91.300	6354.505	434.910	429.879	1032.950	1195.900	162.630	133.196	142.876
9.205	91.300	6239.470	432.108	432.324	1018.990	1180.782	163.241	133.884	143.945
9.981	91.300	6321.021	437.801	423.995	1043.610	1164.339	166.209	131.922	142.659
10.741	91.300	6221.995	431.980	424.937	1004.063	1169.790	165.597	132.534	146.582
11.500	91.300	6464.943	451.900	442.692	1072.700	1252.870	171.927	138.367	150.199
12.261	91.400	6902.058	474.520	483.448	1158.136	1383.126	173.825	138.787	154.364
13.049	91.500	7749.465	514.436	541.488	1314.170	1544.611	181.607	146.671	164.018
13.810	91.600	8452.504	579.099	595.937	1428.951	1766.837	194.700	154.682	171.342
14.582	91.900	9631.416	672.954	637.725	1596.614	2058.323	204.482	160.579	179.366
15.343	92.400	10371.594	866.280	697.306	1701.639	2354.242	209.908	173.723	185.097
16.118	93.200	11232.413	1026.632	739.693	1873.441	2801.877	221.612	179.264	191.172
16.895	94.200	11948.940	1262.333	779.418	2040.810	3103.107	228.095	198.279	198.852
17.656	95.700	12047.660	1352.392	792.460	2063.609	3122.033	234.030	195.592	191.962
18.414	97.600	12426.633	1428.353	825.104	2042.084	2823.580	237.469	201.782	199.718
19.174	99.800	12094.454	1403.338	846.004	2026.253	2620.344	244.614	197.388	201.221
19.933	102.400	12365.409	1394.652	844.590	2016.331	2496.941	235.380	197.846	200.941
20.691	105.200	11990.754	1402.651	844.514	1967.538	2453.650	241.774	189.988	201.056
21.449	107.700	11983.112	1420.953	853.124	1938.142	2400.437	240.475	193.923	209.589
22.208	110.700	11798.293	1392.767	871.209	1905.103	2408.817	240.450	192.981	215.333
22.968	113.800	11987.608	1408.153	870.815	1908.147	2382.758	241.023	199.005	222.211
23.727	116.800	11441.418	1406.089	889.779	1882.496	2375.282	251.594	197.961	239.889
24.477	119.900	11797.185	1425.385	920.614	1928.207	2383.879	262.140	205.080	264.318
25.238	122.900	11491.115	1408.153	943.412	1889.781	2342.893	285.817	199.757	290.389
25.994	125.800	11645.303	1408.611	970.554	1929.914	2347.963	283.359	202.826	305.138
26.789	128.800	11353.243	1364.811	995.581	1889.743	2330.093	295.446	202.075	305.813
27.549	131.700	11452.982	1303.994	1027.919	1928.551	2300.112	288.721	211.971	301.865
28.307	134.600	11104.067	1262.295	1098.071	1858.654	2271.760	292.796	228.057	292.987
29.066	137.400	11141.016	1217.692	1251.316	1874.549	2223.464	284.008	236.794	289.166
29.824	140.200	10986.204	1196.638	1643.446	1843.701	2157.247	291.408	220.109	294.567
30.610	143.000	11100.934	1192.919	2255.381	1833.384	2137.200	293.611	215.155	299.075
31.367	145.700	11017.600	1180.909	3191.867	1851.891	2119.229	310.169	214.353	314.996
32.126	148.400	11008.429	1189.710	4117.858	1846.541	2120.044	317.836	208.430	326.714
32.886	150.700	10861.081	1239.025	4567.378	1869.951	2078.574	341.819	211.105	352.237
33.647	153.400	10668.086	1296.008	4427.799	1820.432	2094.469	378.869	204.558	405.960
34.438	156.300	10759.406	1420.316	3987.984	1881.172	2089.540	424.529	204.214	504.374
35.196	158.500	10454.954	1637.332	3562.383	1914.707	2181.497	528.714	199.566	673.820
35.957	161.100	10588.088	2072.104	3153.454	2022.419	2298.380	677.628	214.034	947.310
36.716	163.600	10468.748	2700.648	2999.941	2130.462	2508.340	907.050	213.920	1373.560
37.477	166.100	10650.841	3676.349	2993.267	2359.871	2803.647	1215.514	233.992	1984.337
38.265	168.600	10571.786	4982.102	3253.906	2622.930	3200.566	1623.259	244.818	2937.011
39.030	171.100	10931.832	6926.665	3843.808	3079.060	3887.812	2213.746	274.902	4226.652
39.787	173.500	10985.211	8780.239	4524.341	3368.980	4158.602	2250.452	261.618	3748.361
40.562	175.900	10738.850	6375.177	3765.364	3101.464	3715.080	1575.611	234.489	2454.528
41.320	178.400	10044.013	4402.606	3043.156	2814.524	3374.418	1220.074	220.504	1951.324
42.092	180.800	10137.600	3633.465	2685.389	2755.249	3372.075	1144.546	212.964	2052.553
42.868	183.200	10182.866	4061.130	2751.988	2888.370	3569.554	1372.134	228.082	2677.862
43.662	185.600	10289.559	4943.116	2954.154	3030.776	3826.881	1526.907	228.452	2879.582
44.422	187.900	10332.009	4653.336	2840.774	2946.104	3606.795	1261.250	218.454	2330.539
45.217	190.600	9862.684	3552.385	2509.359	2728.719	3421.327	1020.786	200.534	1756.138
45.978	192.700	9903.033	2800.794	2265.494	2646.530	3220.588	825.371	205.093	1368.823
46.739	195.000	9706.420	2284.726	2056.183	2489.477	3129.114	692.479	193.949	1099.574
47.499	197.400	9822.641	1944.217	1908.415	2438.799	3079.455	585.926	200.674	911.189
48.259	199.700	9683.355	1691.997	1795.290	2313.014	2991.077	532.687	192.471	786.487
49.045	202.100	9813.827	1534.205	1706.466	2359.667	2966.495	480.124	190.344	687.805
49.829	204.800	9647.718	1440.452	1660.551	2282.739	2909.436	459.835	191.198	644.017
50.588	206.800	9803.561	1343.592	1582.820	2256.770	2881.187	436.285	184.638	596.790
51.349	209.100	9584.749	1288.672	1536.663	2224.292	2827.528	432.808	190.077	583.085
52.128	211.400	9631.059	1239.598	1481.769	2183.790	2832.546	409.462	189.950	547.678
52.889	213.700	9669.880	1206.293	1446.719	2186.464	2772.303	409.297	185.326	526.803
53.690	216.400	9480.514	1161.066	1410.394	2147.440	2721.230	398.649	182.537	489.804
54.455	218.700	9614.756	1142.649	1369.740	2165.793	2657.789	386.346	189.274	483.945
55.213	220.700	9344.158	1102.478	1359.869	2093.768	2675.722	378.105	185.301	469.693
55.975	223.000	9506.637	1086.838	1313.572	2115.293	2637.551	378.551	192.930	467.693
56.736	225.400	9199.204	1084.787	1302.733	2076.842	2640.175	373.864	184.970	458.982
57.497	227.700	9412.158	1072.076	1284.163	2067.786	2596.922	365.853	190.268	441.927
58.256	230.000	9284.780	1030.148	1247.393	2048.172	2565.628	370.056	180.868	438.769
59.017	232.300	9450.583	1035.408	1237.854	2056.145	2576.365	362.376	185.899	428.019
59.804	234.600	9195.205	1019.665	1226.314	2014.917	2523.343	354.212	185.415	421.307
60.580	236.900	9312.826	987.188	1207.413	2010.880	2525.827	347.359	189.224	407.756
61.338	239.300	9098.612	985.379	1182.730	2015.032	2473.073	346.328	187.351	403.069
62.098	241.600	9127.180	976.897	1155.054	1995.838	2465.736	340.138	181.251	395.121
62.857	243.900	9070.018	965.179	1164.530	1972.046	2436.430	335.858	188.905	383.263
63.618	246.200	9139.738	950.061	1142.152	1947.618	2413.683	336.979	180.588	378.411
64.384	248.500	9101.541	943.043	1128.486	1965.754	2388.299	324.523	187.759	379.391
65.183	250.800	8973.068	925.148	1114.692	1929.647	2381.969	328.344	181.034	367.827
65.942	253.100	9132.376	926.473	1105.968	1948.344	2366.125	322.014	184.855	364.082
66.704	255.400	8966.293	908.273	1089.449	1921.890	2341.441	335.973	180.206	359.128
67.464	257.800	9001.522	897.994	1071.732	1915.955	2326.400	319.199	187.695	351.282
68.255	260.100	8853.117	903.203	1049.902	1864.958	2298.150	316.168	178.920	352.543
69.013	262.400	8997.026	891.919	1056.168	1906.339	2312.963	308.424	184.002	338.622
69.772	264.700	8837.744	878.074	1043.152	1843.523	2266.335	314.206	177.060	340.329
70.532	267.000	8913.258	858.244	1031.434	1898.761	2256.400	305.775	183.862	337.081
71.294	269.300	8716.327	863.631	1035.153	1833.665	2230.571	310.806	179.888	326.115
72.058	271.600	8821.403	851.926	1008.648	1850.540	2246.720	305.151	180.397	325.032
72.851	273.900	8703.654	853.251	1009.935	1848.847	2182.223	308.309	180.575	329.248
73.610	276.200	8714.035	833.955	1000.968	1809.758	2206.550	298.413	177.277	317.811
74.374	278.600	8689.682	858.193	993.670	1815.299	2155.005	302.005	175.150	317.696
75.156	280.900	8597.139	849.965	987.302	1777.268	2173.218	297.012	178.512	309.558
75.918	283.200	8753.518	846.577	977.686	1795.532	2144.077	291.497	177.990	310.360
76.711	285.500	8546.487	832.478	968.771	1762.086	2135.009	295.420	173.927	308.666
77.472	287.800	8651.320	830.287	963.077	1775.255	2105.435	298.451	175.328	301.343
78.260	290.100	8532.222	830.351	957.448	1743.185	2102.697	297.407	175.506	302.629
79.019	292.500	8597.713	819.640	946.240	1751.464	2091.170	290.809	177.022	298.337
79.778	294.800	8350.753	810.138	927.619	1731.888	2080.268	292.478	172.182	292.682
80.535	297.100	8490.586	793.122	919.175	1744.943	2057.864	282.747	178.461	291.981
81.312	299.400	8403.775	791.632	913.635	1710.389	2042.135	286.454	176.653	289.523
82.083	301.700	8494.764	806.432	910.565	1716.948	2038.123	288.491	171.609	282.938
82.844	304.000	8372.010	810.495	923.862	1725.010	1998.958	292.975	171.978	282.582
83.604	306.300	8486.001	794.549	904.503	1713.216	2034.493	281.830	170.883	281.868
84.365	308.600	8404.437	814.863	907.890	1712.605	1998.322	291.421	174.437	284.900
85.123	310.600	8278.537	797.236	906.731	1698.480	2003.327	290.160	174.080	273.666
85.885	312.900	8467.521	805.757	911.202	1720.361	1979.573	288.542	178.805	277.665
86.645	315.200	8366.253	790.868	886.939	1692.863	1998.716	276.213	168.540	271.565
87.438	317.500	8495.732	790.448	892.263	1696.098	1954.610	277.092	173.978	275.513
88.201	319.800	8263.037	780.628	886.086	1689.870	1980.822	278.748	171.826	273.411
88.961	322.100	8527.598	806.508	895.192	1700.683	1951.451	274.507	176.513	272.609
89.721	324.400	8312.811	809.336	890.518	1671.581	1959.412	277.742	171.380	269.310
90.494	326.700	8452.211	802.012	876.648	1708.274	1942.752	274.176	173.265	269.412
91.260	329.100	8236.125	769.127	869.006	1673.147	1930.398	273.526	174.780	268.381
92.023	331.400	8380.594	778.182	878.278	1693.105	1908.313	264.445	172.068	269.399
92.782	333.700	8238.494	770.528	878.125	1647.572	1927.265	268.279	173.265	266.012
93.541	336.000	8344.856	774.132	873.795	1672.345	1917.611	266.916	169.571	262.318
94.303	338.300	8149.581	760.313	884.812	1662.372	1897.933	264.547	169.558	259.694
95.059	340.600	8169.806	746.558	883.666	1659.901	1905.320	267.884	172.743	262.293
95.819	342.900	8149.351	761.052	866.675	1641.841	1863.735	265.260	173.176	266.967
96.580	345.200	8223.414	752.327	868.229	1630.098	1881.465	265.362	166.553	258.128
97.338	347.200	7989.509	745.361	861.759	1617.056	1866.525	272.736	175.315	260.420
98.100	349.500	8142.181	734.802	868.153	1616.699	1863.939	262.827	174.921	259.427
98.861	351.800	8095.591	746.749	867.580	1609.580	1854.552	268.215	174.016	261.821
99.618	354.100	8052.121	731.911	866.688	1590.284	1862.271	260.395	171.494	257.147
100.378	356.400	8109.384	729.045	860.116	1624.277	1828.150	265.311	171.902	259.694
101.138	358.800	7955.121	719.022	869.796	1579.343	1832.340	255.771	171.749	257.147
101.897	361.100	8067.762	742.202	862.791	1586.170	1810.688	266.508	173.914	261.184
102.656	363.400	7900.035	715.379	862.345	1575.229	1823.654	263.566	165.636	253.543
103.411	365.700	8012.167	713.812	879.208	1616.521	1790.450	261.197	175.073	260.051
104.167	368.000	7830.571	710.730	870.662	1570.415	1792.526	260.560	166.642	258.128
104.928	370.000	7951.987	702.834	872.687	1581.801	1785.075	258.344	170.616	258.166
105.691	372.300	7818.726	719.073	869.847	1547.910	1793.048	264.789	168.934	262.331
106.452	374.600	7890.814	701.980	872.330	1572.962	1784.871	264.216	174.220	261.439
107.214	376.900	7807.289	710.221	877.896	1556.430	1779.178	263.082	169.266	258.523
108.009	379.200	7959.183	723.912	867.019	1570.937	1777.675	259.834	172.794	261.490
108.791	381.900	7865.571	719.633	866.612	1556.965	1759.959	263.146	168.221	260.331
109.551	383.800	7948.854	713.812	878.762	1562.315	1775.459	259.363	171.380	266.508
110.311	386.200	7811.988	713.137	889.321	1545.795	1750.177	262.445	169.024	264.891
111.073	388.500	7874.677	707.139	885.398	1561.614	1758.010	264.267	170.399	258.943
111.831	390.800	7572.365	712.717	893.358	1553.794	1743.516	262.649	171.711	263.553
112.593	393.100	7886.484	709.673	865.020	1549.425	1766.569	261.019	168.782	261.146
113.357	395.400	7782.452	712.539	882.787	1561.538	1761.169	262.471	169.941	267.094
114.130	397.700	7755.324	708.489	889.384	1542.701	1743.771	259.134	169.915	266.992
114.893	400.000	7812.421	707.864	885.946	1554.023	1736.575	266.215	172.946	265.337
115.653	402.300	7649.433	705.330	896.249	1544.114	1726.258	262.191	168.208	268.164
116.406	404.600	7846.186	715.978	895.612	1563.346	1726.538	266.534	175.239	268.508
117.169	406.900	7612.306	705.190	900.554	1543.210	1730.983	260.586	165.254	266.941
117.927	409.200	7689.986	702.057	903.420	1557.488	1700.454	262.293	176.169	269.298
118.690	411.500	7634.582	706.132	892.785	1532.027	1718.374	262.968	170.463	274.316
119.446	413.500	7596.602	707.431	893.778	1554.456	1700.734	261.426	174.411	274.507
120.205	415.800	7562.125	716.640	904.783	1522.004	1719.317	268.890	168.985	274.443
120.969	418.100	7709.842	728.790	901.713	1555.615	1713.840	265.388	173.978	278.684
121.728	420.400	7629.921	718.627	912.093	1550.228	1721.431	263.171	168.998	279.741
122.489	422.700	7662.361	726.307	908.145	1550.623	1710.261	269.285	173.201	279.678
123.247	425.000	7524.718	729.593	924.983	1547.579	1715.636	275.462	169.877	286.938
124.008	427.300	7717.051	736.713	904.120	1559.818	1728.271	270.138	169.890	282.684
124.771	429.600	7549.516	736.725	916.513	1532.167	1713.980	268.839	169.584	287.893
125.531	431.900	7575.804	729.567	920.640	1585.686	1714.936	273.450	175.468	281.868
126.309	434.200	7596.360	732.127	917.494	1569.829	1704.708	275.679	173.914	292.236
127.099	436.500	7679.720	743.437	916.768	1573.421	1718.043	276.659	173.086	289.243
127.860	438.800	7602.716	746.774	924.995	1579.636	1717.279	270.813	172.908	290.937
128.625	441.100	7542.256	744.584	916.730	1551.807	1716.999	271.858	172.475	284.097
129.396	443.400	7713.676	744.851	920.805	1581.152	1710.350	279.805	173.392	293.624
130.159	445.700	7568.085	741.361	925.492	1554.125	1735.301	273.845	171.864	290.287
130.916	448.000	7635.385	758.543	932.650	1591.137	1710.452	276.990	172.297	293.178
131.680	450.300	7501.283	752.837	947.615	1550.814	1717.355	277.615	170.310	294.643
132.440	452.600	7465.824	757.549	925.072	1588.666	1711.942	273.182	170.883	295.331
133.201	455.000	7469.149	757.231	924.359	1561.487	1714.719	272.736	172.819	296.706
133.962	457.000	7659.686	770.337	928.957	1566.072	1710.159	282.365	175.532	300.642
134.724	459.300	7512.860	762.020	931.950	1571.014	1724.373	280.569	172.730	307.673
135.486	461.600	7638.824	773.024	933.070	1563.435	1717.164	275.895	173.685	302.603
136.261	463.900	7523.864	773.126	951.462	1578.821	1716.107	280.544	173.405	308.513
137.024	466.200	7630.201	773.495	932.039	1598.563	1734.652	278.302	173.125	296.324
137.785	468.500	7514.809	788.423	938.063	1570.886	1736.600	283.333	173.774	306.310
138.546	470.800	7665.863	769.980	943.591	1593.927	1711.471	279.652	174.207	304.208
139.306	473.200	7485.286	772.375	932.943	1570.046	1709.497	283.473	173.418	311.302
140.081	475.500	7602.907	771.598	923.556	1600.766	1724.373	280.990	174.335	304.221
140.843	477.800	7492.660	789.607	932.637	1595.684	1694.812	280.939	174.042	302.680
141.602	480.100	7570.747	775.431	928.562	1592.296	1733.442	279.512	170.412	302.094
142.360	482.400	7449.050	783.736	934.764	1601.288	1715.483	286.785	175.086	314.525
143.137	484.700	7431.028	772.184	929.682	1591.175	1728.283	281.805	172.386	315.977
143.896	487.000	7530.959	785.939	935.885	1596.283	1718.413	283.983	170.565	318.104
144.679	489.300	7448.694	785.761	932.051	1592.742	1716.910	281.830	169.660	314.614
145.441	491.600	7525.966	790.486	910.896	1609.236	1735.862	288.007	175.315	317.938
146.199	494.000	7406.485	794.676	946.011	1603.657	1730.971	284.467	171.494	316.180
146.963	496.300	7583.407	800.509	926.906	1622.061	1752.304	273.475	172.628	315.365
147.724	498.600	7479.898	808.533	934.675	1613.095	1759.793	291.752	174.793	311.990
148.495	500.900	7572.352	803.031	929.797	1642.312	1762.634	283.078	178.296	317.034
149.253	502.800	7453.776	777.393	944.546	1613.260	1753.947	283.843	173.723	320.142
150.011	505.100	7484.471	776.552	931.860	1636.734	1789.482	286.301	173.430	312.678
150.772	507.500	7436.047	797.262	940.305	1621.284	1785.878	294.732	171.278	319.823
151.533	509.800	7495.679	795.619	938.827	1656.220	1813.860	286.135	173.418	315.060
152.295	512.100	7444.835	797.555	943.871	1639.523	1800.384	295.496	173.953	319.696
153.087	514.400	7496.940	792.358	925.874	1648.693	1837.524	283.715	171.087	311.379
153.848	516.700	7385.559	791.874	946.291	1647.763	1867.696	294.388	174.615	317.620
154.612	519.000	7443.816	778.807	919.124	1640.962	1883.235	288.568	167.992	314.843
155.374	521.300	7459.940	795.708	938.865	1673.338	1913.560	295.140	174.679	322.281
156.133	523.600	7393.520	797.911	934.853	1652.743	1941.479	287.320	170.310	310.729
156.894	525.900	7496.748	778.259	933.860	1680.318	1965.067	288.109	174.093	323.428
157.654	528.200	7377.510	789.008	932.179	1682.725	1986.935	291.968	171.520	318.397
158.417	530.500	7486.190	782.882	930.039	1719.240	2041.371	286.810	170.221	319.645
159.176	532.800	7371.193	789.824	939.884	1687.985	2080.841	290.504	175.252	321.046
159.936	535.100	7501.168	781.991	934.790	1719.597	2086.356	286.963	172.399	316.932
160.698	537.500	7413.834	791.798	935.694	1705.256	2147.669	290.134	169.469	320.129
161.460	539.400	7595.481	784.423	937.159	1752.546	2153.350	287.956	174.029	321.390
162.224	541.700	7448.770	781.328	937.745	1742.956	2189.623	293.089	173.150	319.454
162.985	544.000	7538.053	788.932	935.006	1787.597	2195.571	293.726	171.685	316.856
163.745	546.400	7472.205	786.410	936.942	1751.693	2212.141	294.121	171.201	320.829
164.506	548.700	7565.933	790.333	941.718	1776.822	2146.090	288.721	173.469	310.080
165.266	551.000	7463.914	778.934	928.969	1749.426	2073.849	288.682	169.584	316.550
166.060	553.300	7510.606	762.007	920.003	1761.016	2002.830	287.332	171.367	312.793
166.821	555.600	7372.708	783.595	927.403	1728.334	1904.785	291.676	170.654	312.219
167.583	557.900	7479.452	780.360	921.251	1680.815	1846.414	284.811	170.870	309.214
168.347	560.200	7393.214	792.982	930.332	1693.029	1789.113	288.670	174.589	310.704
169.109	562.500	7357.870	773.228	933.491	1629.015	1767.639	291.930	170.463	304.437
169.870	564.800	7315.891	786.372	918.844	1656.857	1725.354	289.791	175.990	320.180
170.648	567.100	7270.129	785.875	918.360	1633.690	1728.487	290.325	169.839	311.570
171.411	569.400	7347.757	780.883	924.117	1645.535	1707.064	282.824	169.724	315.085
172.175	571.700	7298.595	768.707	934.930	1622.456	1677.121	295.496	168.718	310.245
172.935	574.000	7275.593	782.207	917.672	1634.963	1678.076	292.987	171.953	315.149
173.694	576.400	7309.179	777.546	941.909	1608.764	1680.089	290.466	168.298	311.557
174.470	578.700	7359.195	778.768	925.709	1629.372	1670.447	287.676	171.214	311.392
175.230	581.000	7265.213	774.947	934.051	1591.099	1666.690	289.931	168.743	312.500
175.993	583.300	7366.174	787.098	918.003	1602.307	1641.930	293.013	172.118	309.965
176.750	585.200	7275.172	776.756	931.618	1597.926	1653.635	293.357	165.725	315.200
177.513	587.600	7327.048	770.859	930.943	1608.917	1653.075	287.689	169.151	314.359
178.272	589.900	7237.906	785.328	928.103	1600.397	1655.367	293.637	167.814	313.175
179.036	592.200	7300.684	769.866	927.237	1619.374	1679.312	291.905	171.252	313.761
179.797	594.500	7256.170	772.973	924.129	1604.842	1649.814	290.759	169.278	317.964
180.560	596.800	7319.534	764.631	926.142	1623.271	1655.991	288.007	168.540	312.665
181.322	599.100	7245.446	774.183	931.529	1592.857	1642.936	295.356	169.890	315.505
