Wed, Mar 30, 2016	10:08 PM
 Notes: 
 waiting time: 30.000
 time(s)	 temp (K)	 MS1=2.085	 MS2=15.166	 MS3=17.074	 MS4=26.712	 MS5=41.148	 MS6=42.035	 MS7=42.992	 MS8=57.407
0.000	140.000	445.833	173.846	305.737	510.830	29.373	167.842	23.621	1.796
0.785	140.000	449.712	180.835	301.576	528.309	30.083	166.352	24.270	2.153
1.573	140.000	452.439	169.014	292.399	521.147	33.085	168.147	24.969	2.209
2.359	140.000	436.856	176.295	301.370	525.678	31.563	164.093	25.275	0.973
3.146	139.900	433.749	173.927	294.524	535.485	29.967	161.218	23.502	2.031
3.933	139.900	448.636	175.342	300.661	525.088	33.937	164.612	25.493	1.954
4.723	139.900	453.277	180.256	299.589	519.014	32.360	167.773	28.006	0.039
5.512	139.900	443.664	174.791	305.380	516.240	34.796	165.079	26.186	1.224
6.304	139.900	447.341	179.722	299.429	534.818	33.870	163.686	27.909	1.198
7.094	139.900	432.055	173.644	306.516	515.092	34.778	169.426	26.242	2.088
7.885	140.100	442.703	179.634	303.117	525.859	36.622	164.957	29.988	2.196
8.675	140.400	450.800	181.949	306.944	529.311	32.900	176.309	28.069	2.967
9.467	140.900	451.837	184.403	305.708	551.905	38.072	180.768	29.412	1.048
10.256	141.800	432.747	174.028	308.154	544.114	42.558	176.398	31.663	2.259
11.048	143.400	450.230	191.435	316.986	561.717	44.510	172.353	32.707	2.959
11.838	145.200	441.294	186.558	329.722	578.024	52.649	173.167	35.683	4.584
12.629	147.400	442.505	196.066	353.967	578.690	64.712	177.444	41.138	4.076
13.418	150.000	454.581	200.977	387.767	570.560	112.475	184.337	64.148	8.180
14.206	153.000	456.599	209.449	456.639	591.381	204.908	199.545	118.075	17.036
14.997	156.600	455.959	258.996	567.788	631.291	463.551	230.960	246.786	36.792
15.789	160.000	472.702	345.955	730.144	728.167	1011.909	290.340	576.254	91.153
16.580	163.500	507.201	540.583	926.888	899.592	1041.505	360.680	804.424	100.979
17.368	167.200	511.553	508.160	835.480	862.333	1009.057	337.938	602.872	76.154
18.156	171.000	506.627	474.119	779.923	839.997	776.181	324.467	477.567	62.793
18.944	174.800	507.782	404.125	702.460	788.142	528.586	312.839	355.613	47.543
19.732	179.100	499.904	369.938	646.131	759.076	399.160	285.556	301.936	37.991
20.538	182.900	502.072	347.587	559.579	736.263	347.528	281.884	270.895	32.025
21.327	186.600	484.334	328.775	522.693	722.364	315.709	282.527	255.844	32.069
22.117	190.300	494.060	325.574	503.010	725.851	318.624	269.369	252.772	30.019
22.906	193.900	500.752	332.446	493.826	719.335	313.940	272.345	255.518	33.666
23.697	198.100	487.552	320.681	486.192	714.075	333.798	265.768	271.063	36.423
24.486	201.700	492.534	326.637	483.041	710.713	368.798	268.091	292.560	40.725
25.278	205.300	509.568	336.716	499.341	741.568	418.406	275.714	350.682	47.827
26.065	208.800	504.282	362.751	507.417	760.577	503.837	280.394	424.552	62.226
26.853	212.300	521.376	409.563	537.645	783.887	619.254	299.657	536.076	71.732
27.641	215.800	534.586	444.414	560.645	816.971	751.536	307.794	620.276	88.789
28.428	219.700	551.497	479.734	600.172	842.723	835.240	324.108	654.979	85.343
29.218	223.100	551.429	480.147	581.563	836.067	738.087	328.320	569.700	72.494
30.003	226.500	526.402	431.562	571.506	810.568	600.598	318.923	441.926	57.371
30.793	229.900	517.147	384.980	525.462	781.467	490.349	296.543	377.076	46.403
31.582	233.200	512.525	368.186	491.476	750.756	407.391	290.131	313.346	38.698
32.372	237.000	498.715	349.907	474.009	746.708	361.694	277.577	278.838	39.220
33.158	240.200	492.486	346.032	454.304	722.471	326.718	277.802	249.251	31.831
33.946	243.500	510.203	322.569	443.628	721.697	301.463	272.908	240.220	29.066
34.738	246.700	504.775	316.880	438.972	704.830	278.071	267.218	219.873	30.789
35.525	249.900	529.953	322.376	425.628	706.952	268.332	258.587	215.466	24.568
36.321	253.100	511.014	319.077	418.970	703.762	259.647	252.816	201.700	25.447
37.110	256.700	525.473	321.220	413.956	699.124	240.754	253.024	194.739	24.749
37.897	259.900	535.061	318.432	414.379	688.468	243.625	252.594	195.457	23.945
38.685	263.100	556.059	311.424	415.253	693.873	225.069	246.729	187.682	21.523
39.474	266.200	566.810	309.406	398.435	670.972	232.399	259.142	181.926	21.271
40.260	269.300	584.423	302.610	397.705	674.308	222.064	245.657	173.450	21.393
41.048	272.500	598.037	287.115	394.652	680.298	221.422	243.773	170.171	21.495
41.837	276.000	623.506	281.209	387.640	662.493	212.374	243.301	161.485	21.704
42.627	279.100	631.263	281.230	388.851	669.900	206.670	239.607	170.086	21.930
43.416	282.300	654.462	268.914	385.778	667.972	208.734	232.722	163.467	20.040
44.206	285.400	658.730	265.459	380.699	672.556	204.250	237.095	161.987	20.124
44.994	288.600	671.059	265.228	380.246	663.787	199.784	236.250	159.243	19.817
45.783	291.700	666.192	262.557	381.828	667.573	197.680	233.467	153.605	19.188
46.573	295.300	659.311	263.411	379.661	657.522	191.655	233.581	154.917	18.212
47.360	298.500	691.578	268.230	379.196	666.400	192.984	239.845	144.284	17.927
48.151	301.700	701.058	255.904	374.911	656.759	188.647	234.557	149.896	19.926
48.940	304.900	699.040	259.199	370.051	651.903	187.472	233.310	145.975	17.915
49.732	308.100	683.544	262.624	363.773	651.470	181.237	232.951	146.189	18.125
50.522	311.800	667.801	251.696	363.435	653.574	175.388	228.354	146.444	18.381
51.299	314.900	676.993	252.178	369.791	655.982	180.653	224.266	145.813	18.672
52.081	318.000	670.562	261.092	353.328	641.324	178.084	227.332	139.091	16.536
52.870	321.000	675.402	255.600	350.089	635.470	174.110	225.042	139.546	19.893
53.659	324.100	666.517	255.477	369.376	644.105	172.177	228.525	142.672	18.570
54.447	327.200	669.717	248.493	349.128	643.870	170.976	222.236	138.030	17.679
55.238	330.300	664.745	256.622	340.517	650.723	165.824	221.550	138.814	18.190
56.027	333.900	658.220	254.467	354.855	641.142	166.668	230.097	131.937	17.700
56.816	336.900	663.106	252.926	349.091	644.267	169.854	224.548	133.401	15.777
57.609	340.000	665.221	248.786	355.955	650.450	167.809	236.170	133.133	16.639
58.398	343.000	658.000	257.394	350.577	650.937	168.902	231.011	133.066	14.875
59.188	346.000	656.250	252.740	348.885	644.616	166.980	225.915	135.939	17.597
59.977	349.100	660.352	253.944	340.967	649.829	158.726	235.339	135.439	15.954
60.765	352.600	666.111	249.046	342.921	646.079	164.170	239.019	132.252	16.790
61.553	355.700	639.363	254.492	343.878	646.374	160.153	237.261	128.326	16.327
62.342	358.700	651.467	246.331	340.819	653.149	161.138	232.044	126.980	16.681
63.132	361.800	641.651	250.454	330.447	656.650	159.041	252.740	129.053	14.970
63.921	364.800	646.375	253.024	334.739	661.260	157.951	248.458	130.270	15.339
64.710	367.900	637.575	246.194	332.090	645.962	157.279	244.156	127.786	15.610
65.501	371.400	640.018	253.814	337.750	650.825	154.449	243.765	128.112	14.488
66.291	374.400	637.327	256.345	330.827	643.928	156.569	241.523	125.620	14.132
67.082	377.400	614.559	251.177	325.674	651.571	156.321	239.091	125.722	17.406
67.873	380.500	627.435	252.350	330.182	665.560	156.475	237.899	125.660	16.295
68.662	383.500	608.743	252.163	323.864	682.198	155.473	236.116	121.926	16.887
69.452	386.900	604.204	251.888	316.407	670.926	154.234	234.847	123.948	14.674
70.242	390.000	577.228	248.861	322.140	694.440	151.513	235.209	122.521	16.471
71.032	393.000	601.693	252.208	329.629	706.057	150.500	231.128	125.816	12.810
71.824	396.100	576.861	247.557	313.679	734.996	152.181	228.577	120.904	14.343
72.612	399.200	574.297	245.422	320.357	745.174	149.083	223.169	119.967	14.556
73.403	402.700	575.199	248.629	313.596	762.870	149.280	224.351	120.080	14.710
74.194	405.800	572.763	244.730	321.490	787.648	148.006	223.977	119.028	14.350
74.987	408.900	568.634	249.014	320.772	822.156	145.366	224.651	115.369	14.990
75.779	412.100	572.024	246.496	304.997	830.814	147.771	223.558	119.080	13.950
76.565	415.200	557.099	256.750	315.093	837.652	142.564	220.007	117.310	13.430
77.354	418.400	567.795	252.238	310.335	861.874	146.103	221.351	113.562	13.080
78.147	421.900	556.957	249.961	306.096	866.759	140.130	226.989	118.275	13.912
78.937	425.000	545.960	255.068	309.323	890.133	143.370	222.465	119.322	13.889
79.726	428.100	553.681	247.424	314.367	890.462	141.551	215.886	116.206	14.781
80.517	431.100	543.770	244.129	315.013	906.131	142.939	222.396	115.313	12.785
81.309	434.100	553.345	241.452	303.995	904.245	135.279	216.729	111.704	13.826
82.097	437.500	534.251	246.004	307.099	907.867	139.721	211.459	110.024	15.040
82.888	440.500	535.984	250.384	303.792	898.638	139.053	214.541	110.781	13.486
83.676	443.600	550.329	252.660	309.922	919.206	137.759	218.838	111.084	13.619
84.466	446.700	552.321	244.168	302.110	937.172	138.541	215.070	109.497	12.875
85.259	449.900	540.454	255.118	298.120	916.466	139.430	214.420	114.207	13.302
86.047	453.100	537.686	256.863	298.791	907.440	139.604	218.303	114.352	13.520
86.838	456.800	530.938	248.999	302.117	910.475	142.842	218.355	113.291	12.337
87.625	459.900	528.268	244.004	306.181	905.074	131.773	216.862	111.435	16.159
88.417	462.900	535.794	245.483	301.098	893.743	134.968	222.263	107.949	13.380
89.206	466.000	529.560	244.630	293.023	890.246	137.923	210.922	110.981	12.429
89.995	469.000	518.285	243.539	297.139	888.428	135.806	215.920	105.868	15.080
90.783	472.500	512.499	243.115	299.346	864.778	138.400	208.509	108.127	11.816
91.572	475.500	526.903	251.086	302.413	861.321	133.887	213.542	108.944	12.904
92.361	478.500	515.438	235.321	298.226	831.472	132.370	213.306	103.017	12.052
93.152	481.500	518.652	239.885	300.105	837.359	129.476	210.083	108.515	13.680
93.939	484.600	531.001	236.677	290.472	826.545	134.095	212.612	108.540	11.182
94.726	487.600	521.477	246.666	295.639	807.403	134.208	213.036	108.645	11.724
95.515	491.100	512.062	241.850	296.049	770.420	128.941	209.168	104.204	12.695
96.303	494.200	513.490	229.940	287.636	767.660	126.058	210.371	103.477	13.339
97.093	497.300	508.050	239.848	291.246	755.461	128.015	203.119	104.046	12.733
97.881	500.400	517.307	231.892	301.249	749.594	132.016	214.600	103.732	12.090
98.669	503.500	509.618	226.861	292.456	728.166	127.567	207.564	106.892	12.414
99.459	506.700	509.797	234.054	277.485	707.463	128.648	207.482	104.905	12.583
100.249	510.400	498.845	230.653	281.707	705.372	123.722	210.591	105.084	12.793
101.038	513.500	509.906	230.017	292.053	714.696	128.009	207.006	102.931	10.249
101.826	516.600	512.873	219.848	293.709	692.232	124.125	206.723	101.495	11.349
102.617	519.700	497.181	220.975	292.949	676.731	122.563	209.485	102.417	11.820
103.409	522.600	509.265	223.194	284.231	683.655	125.375	206.065	107.586	13.666
104.199	525.600	500.718	215.363	291.898	665.604	127.537	205.577	103.962	11.945
104.990	529.200	496.911	220.788	286.117	662.505	124.638	204.917	104.355	13.127
105.780	532.200	505.267	223.482	279.557	664.385	122.186	207.407	101.414	13.089
106.569	535.300	496.306	226.468	290.019	662.785	126.322	200.314	102.993	11.174
107.359	538.300	502.795	215.324	284.257	650.049	124.451	202.641	98.160	12.429
108.146	541.300	498.803	226.152	275.882	652.976	120.919	199.543	99.226	11.624
108.933	544.800	507.200	222.503	284.845	659.455	122.769	202.244	99.818	11.887
109.721	547.900	504.060	220.698	282.217	650.343	120.983	197.545	101.314	11.941
110.508	551.000	492.909	217.025	276.910	654.111	123.715	198.494	94.196	10.900
111.295	554.100	489.011	218.120	289.360	642.327	123.241	201.749	101.136	12.208
112.085	557.200	482.512	208.713	280.934	645.991	120.807	207.513	96.206	13.165
112.873	560.300	498.015	219.309	281.822	648.841	121.226	198.931	102.395	11.986
113.661	563.800	494.855	212.753	283.434	644.834	122.390	202.245	101.170	10.321
114.453	566.900	482.335	228.589	279.200	657.746	125.013	199.627	98.677	12.651
115.242	569.900	493.768	224.683	281.175	640.756	117.695	197.574	97.949	10.005
116.030	573.000	488.122	224.482	280.442	647.716	120.765	198.575	98.022	10.523
116.818	576.100	490.015	219.877	278.818	646.086	120.788	200.492	100.755	11.277
117.609	579.200	501.749	212.592	276.008	649.039	123.210	199.356	96.578	10.697
118.398	582.700	487.631	226.211	287.272	644.970	118.202	200.070	101.845	11.143
119.189	585.700	480.915	217.753	277.332	641.856	124.846	194.340	96.910	13.175
119.977	588.800	481.390	217.207	277.415	647.574	121.807	185.856	96.412	11.074
120.771	592.000	485.421	220.109	290.982	639.896	118.418	201.627	96.386	10.016
121.564	595.200	489.111	213.564	276.997	644.941	119.553	204.693	98.011	12.728
122.354	598.700	487.964	217.306	280.065	627.481	119.167	202.179	95.293	11.128
123.139	601.800	493.594	216.725	282.620	633.523	119.093	195.654	95.598	11.085
123.928	604.800	485.997	210.797	278.740	646.144	118.008	197.560	96.643	12.287
124.719	607.800	471.627	215.346	272.518	627.999	119.463	199.359	90.697	12.631
125.508	610.900	476.292	217.352	274.707	640.681	117.323	204.728	93.971	10.430
126.296	614.000	479.723	212.044	281.612	630.491	119.657	199.684	91.565	12.671
127.081	617.000	476.473	216.054	275.079	636.315	115.613	192.765	93.858	12.667
127.868	620.500	482.231	215.370	282.982	639.274	115.336	195.073	96.745	9.371
128.656	623.500	467.377	216.944	284.132	631.878	123.210	188.866	89.691	11.290
129.447	626.600	473.670	212.372	277.008	638.469	118.511	196.600	93.182	12.237
130.236	629.700	471.927	205.856	272.756	640.159	118.021	191.735	92.404	11.382
131.024	632.800	469.590	210.848	277.410	642.136	111.115	190.170	89.869	9.762
131.812	636.300	460.889	214.441	274.607	629.488	116.886	192.984	89.008	10.765
132.602	639.400	475.765	208.145	270.790	648.555	116.424	198.832	91.063	9.089
133.395	642.500	469.777	212.553	278.281	634.242	115.046	194.630	85.621	11.004
134.182	645.600	463.707	205.904	277.505	641.707	106.128	193.913	93.180	10.565
134.969	648.700	472.452	203.544	275.403	634.714	113.222	196.303	93.010	11.268
135.758	651.700	456.044	211.757	275.792	647.719	110.861	190.581	91.382	10.895
136.546	655.200	466.175	210.746	274.746	640.991	112.940	187.388	86.828	10.469
137.336	658.200	453.580	208.657	269.051	644.726	109.127	195.035	90.741	10.959
138.126	661.300	463.567	204.177	270.455	635.487	109.876	192.007	85.977	10.604
138.912	664.400	462.041	206.458	276.801	639.423	103.282	196.523	86.510	10.539
139.701	667.500	467.036	206.454	273.381	630.186	102.724	189.689	87.526	11.261
140.491	670.600	470.850	208.121	271.416	641.418	105.741	190.015	86.697	9.616
141.280	674.100	464.470	208.695	272.771	638.652	107.812	192.520	89.495	9.071
142.068	677.100	461.489	208.599	280.287	645.693	104.317	192.839	87.751	9.922
142.882	680.200	456.984	200.688	276.270	631.937	105.247	192.530	86.601	11.379
143.669	683.300	454.527	207.901	273.771	637.741	102.721	189.176	88.129	10.780
144.460	686.400	462.594	207.146	277.629	639.337	103.993	180.469	84.028	11.045
145.252	689.900	443.066	199.081	269.421	639.212	103.240	194.243	85.665	10.301
146.042	692.900	467.353	200.813	286.711	641.281	103.005	184.085	82.310	8.069
146.832	696.000	455.877	198.805	283.442	644.426	100.301	189.162	85.632	9.300
147.620	699.100	452.652	207.398	282.015	634.031	97.506	186.454	81.278	10.973
148.411	702.200	445.464	205.109	286.158	640.983	105.691	188.581	83.053	8.110
149.201	705.700	457.329	207.684	281.358	649.328	100.431	191.402	86.553	9.489
149.989	708.800	442.976	199.594	284.832	642.024	104.831	193.549	81.163	10.331
150.782	711.900	442.324	203.134	282.603	643.687	101.202	186.149	83.576	10.219
151.571	715.000	456.814	209.243	284.580	651.292	97.468	194.845	80.713	9.503
152.360	718.000	455.160	202.389	282.737	645.335	99.461	191.451	79.144	9.569
153.150	721.100	458.274	202.648	284.666	638.107	101.206	193.527	82.035	9.376
153.938	724.600	450.460	207.017	275.161	640.354	93.907	184.841	83.777	8.531
154.728	727.700	447.433	199.264	278.031	643.548	100.719	186.508	79.538	7.603
155.516	730.700	451.994	194.989	275.751	642.404	99.464	191.790	78.830	9.131
156.301	733.800	452.788	201.906	283.974	646.316	99.987	184.714	84.102	8.489
157.087	736.900	459.138	204.519	279.750	636.590	99.637	181.281	81.639	8.787
157.872	740.100	455.814	202.649	281.239	636.028	102.818	186.649	77.319	8.419
158.660	743.600	449.323	198.438	282.986	639.414	95.985	191.949	78.738	9.804
159.451	746.600	448.129	194.181	277.737	632.391	96.353	187.477	79.467	10.042
160.239	749.700	448.340	199.300	288.120	637.099	101.424	184.297	80.052	9.803
161.027	752.800	442.712	205.122	280.026	628.939	97.006	182.958	74.975	8.523
161.817	755.900	445.997	200.569	271.424	632.536	98.421	188.096	78.179	8.193
162.607	759.000	446.851	194.393	283.884	636.819	92.298	184.356	74.792	9.534
163.395	762.500	437.246	194.919	278.697	637.555	95.803	187.855	78.514	9.550
164.185	765.600	448.924	196.729	289.242	623.679	95.908	184.475	77.216	7.656
164.975	768.600	445.055	203.900	276.789	642.224	86.287	183.895	75.633	9.908
165.762	771.600	445.920	198.328	284.118	625.077	94.794	179.431	75.053	9.035
166.552	774.700	446.205	198.910	283.080	629.305	91.275	188.375	76.974	8.136
167.344	778.200	442.968	194.910	284.079	631.182	91.594	183.724	73.027	9.046
168.132	781.400	454.425	196.138	283.102	630.372	91.240	180.298	74.759	9.133
168.919	784.400	441.165	200.980	284.588	632.437	91.676	182.876	70.050	8.562
169.707	787.400	438.043	201.629	287.197	623.160	90.923	184.377	70.151	7.342
170.495	790.400	444.459	193.736	293.554	633.762	88.922	178.772	71.511	10.014
171.284	793.500	442.580	197.745	282.473	626.934	90.887	186.129	76.345	8.265
172.074	797.000	439.191	195.408	287.850	630.829	86.801	175.736	70.208	7.669
172.862	800.200	454.485	200.097	281.988	624.335	86.559	185.785	73.525	7.353
173.650	803.300	436.032	194.582	289.849	635.210	88.257	181.123	72.694	8.717
174.440	806.400	452.358	197.743	295.905	630.926	92.076	181.246	74.547	6.772
175.230	809.400	447.106	202.003	287.765	644.590	84.030	180.235	72.459	6.701
176.018	812.500	441.543	201.718	287.045	640.707	87.924	181.742	69.691	8.630
176.808	816.000	445.682	192.796	287.467	636.188	86.937	179.297	69.694	7.094
177.599	819.100	428.337	189.315	291.172	643.868	87.145	177.883	67.250	9.150
178.393	822.200	433.344	192.278	294.465	655.598	83.056	184.204	68.411	8.462
179.181	825.300	435.973	197.450	292.469	656.767	83.215	180.475	66.617	8.620
179.967	828.300	444.585	198.297	294.241	661.607	86.083	188.142	74.578	7.754
180.757	831.400	439.981	192.878	299.732	659.779	84.549	181.672	70.250	7.423
181.545	834.900	442.707	196.886	293.930	652.046	84.647	182.399	69.078	7.579
182.335	838.000	448.220	195.215	290.356	672.612	83.291	186.438	69.827	7.424
183.124	841.100	434.120	199.081	301.743	671.786	80.504	174.548	64.112	9.229
183.913	844.200	440.095	199.023	294.625	671.485	79.184	182.721	65.856	7.722
184.703	847.200	438.211	199.526	297.680	678.337	82.171	180.585	67.067	7.510
185.494	850.700	439.590	200.587	289.980	688.524	77.337	177.345	69.994	6.755
186.285	853.700	439.944	199.451	298.638	685.474	79.396	181.279	65.571	6.560
187.076	856.900	442.670	194.977	295.159	687.981	79.515	184.025	65.828	7.761
187.868	859.900	448.083	201.376	305.374	693.671	83.712	181.513	63.572	6.724
188.656	863.000	437.107	199.418	297.983	694.407	79.153	178.593	67.292	7.836
189.446	866.100	436.556	203.710	307.159	694.197	85.810	180.015	66.559	8.010
190.235	869.600	430.081	189.181	302.411	691.045	81.492	182.257	60.865	8.018
191.023	872.600	441.178	195.467	306.010	692.709	82.788	183.329	66.585	6.150
191.814	875.600	440.930	198.019	301.265	705.559	79.186	176.267	62.068	7.337
192.605	878.700	434.041	199.625	301.723	708.185	78.288	177.101	65.311	7.971
193.391	881.800	433.794	198.149	310.155	699.937	80.685	188.169	65.584	6.423
194.179	884.900	437.041	201.307	313.993	705.273	76.170	176.253	64.882	6.426
194.969	888.400	432.002	197.491	316.741	708.253	76.592	176.556	66.172	7.808
195.761	891.500	438.914	192.351	311.149	700.809	79.688	176.619	66.256	7.232
196.550	894.500	437.799	199.344	310.017	698.231	76.322	181.360	63.339	7.889
197.342	897.600	430.445	196.846	312.943	692.135	79.487	182.082	59.662	7.777
198.130	900.800	429.819	196.149	310.873	697.230	81.058	181.957	63.347	6.463
198.917	904.300	437.882	195.653	309.641	694.864	77.327	182.248	60.084	7.084
199.706	907.300	438.419	194.782	310.243	688.358	78.803	185.557	62.880	6.648
200.497	910.300	428.278	191.537	322.898	694.443	81.464	185.014	61.298	7.391
201.288	913.400	432.756	199.678	313.880	681.767	79.260	179.609	59.553	8.066
