Wed, Mar 30, 2016	8:25 PM
 Notes: 
 waiting time: 30.000
 time(s)	 temp (K)	 MS1=2.085	 MS2=15.166	 MS3=17.074	 MS4=26.712	 MS5=41.148	 MS6=42.035	 MS7=42.992	 MS8=57.407
0.000	169.800	441.058	187.742	284.540	508.278	31.011	209.363	27.038	4.142
0.787	169.900	450.146	188.483	295.612	507.997	33.065	212.160	26.425	2.779
1.570	169.900	459.907	193.803	296.046	508.011	32.060	201.891	29.819	2.233
2.355	169.900	447.827	190.471	296.642	508.235	32.707	201.682	28.893	3.941
3.137	170.000	453.412	187.568	297.799	506.193	35.700	204.807	29.084	1.943
3.917	170.000	451.289	197.755	301.085	503.493	33.306	208.178	29.272	3.288
4.702	170.000	459.046	192.110	299.415	501.335	33.846	204.314	28.149	4.362
5.485	170.000	447.093	185.285	301.836	489.778	35.894	202.095	27.410	3.211
6.273	170.000	441.316	188.858	303.097	505.679	32.905	205.019	29.862	4.125
7.063	170.000	456.657	183.781	302.015	487.539	35.600	201.533	29.620	3.984
7.850	170.000	445.584	184.206	296.513	508.022	35.110	202.860	30.206	3.916
8.639	170.100	440.405	187.692	300.852	506.949	38.271	210.935	34.019	4.486
9.421	170.400	443.473	189.215	301.934	512.482	34.355	201.375	32.672	4.275
10.205	171.000	455.438	194.385	309.252	533.884	43.348	206.860	36.729	5.183
10.990	172.000	446.982	190.284	315.452	535.482	44.819	213.905	42.449	5.812
11.773	173.500	462.023	200.037	330.036	516.070	52.762	202.482	46.436	6.858
12.560	175.400	469.146	199.338	337.682	518.757	61.520	219.144	48.887	7.615
13.345	177.800	461.924	205.231	341.964	526.591	71.525	219.526	59.171	10.634
14.135	180.900	455.784	207.519	358.319	527.587	86.562	221.913	67.839	12.548
14.923	183.900	457.928	215.242	360.646	533.651	101.572	228.272	76.606	12.510
15.712	187.200	461.966	211.066	363.930	536.116	103.461	232.576	86.245	14.959
16.500	190.500	461.718	218.316	356.652	542.223	114.575	227.178	93.857	15.644
17.289	194.000	452.003	228.631	372.768	546.735	125.503	228.556	103.249	17.422
18.068	197.500	447.490	227.987	363.477	537.505	139.832	227.673	122.042	19.786
18.851	201.600	463.891	236.010	378.603	553.224	165.072	240.161	146.287	25.602
19.634	205.100	465.897	249.410	381.466	551.303	211.377	239.181	182.690	33.708
20.419	208.700	461.272	272.936	397.858	581.577	277.718	258.671	241.561	46.885
21.207	212.300	484.167	299.382	436.239	605.051	377.898	278.852	336.888	63.376
21.994	215.900	502.665	335.725	476.185	654.991	492.256	291.007	420.650	77.504
22.779	219.500	520.952	373.506	513.515	686.110	550.763	307.992	452.014	76.266
23.566	223.100	518.717	382.613	513.784	680.454	485.594	313.904	375.050	62.847
24.348	227.100	495.215	352.222	483.076	677.858	388.645	301.587	309.259	49.753
25.136	230.600	485.057	326.009	467.388	663.458	315.379	302.466	238.798	39.655
25.922	234.100	478.191	302.377	429.557	646.245	260.340	294.030	192.029	31.060
26.707	237.500	476.788	297.680	422.953	616.076	204.913	282.842	161.447	22.991
27.491	240.900	471.823	273.118	421.674	606.463	185.114	281.971	142.587	21.958
28.274	244.300	485.864	264.555	386.722	604.583	165.893	274.973	134.003	20.995
29.055	247.700	470.690	265.042	381.306	600.102	152.699	270.265	127.477	18.910
29.842	251.100	486.430	260.181	379.194	582.469	147.990	266.333	120.412	18.211
30.629	254.900	472.660	256.842	369.717	579.595	142.901	269.777	112.035	17.294
31.415	258.200	485.554	249.914	370.511	581.713	135.764	264.295	111.555	18.275
32.201	261.500	488.268	254.184	367.809	575.952	128.517	258.551	109.420	18.354
32.985	264.700	484.299	243.300	359.818	565.763	129.980	257.299	110.460	17.939
33.763	268.000	473.191	249.410	360.920	577.574	124.340	249.393	105.028	14.928
34.546	271.200	501.379	243.120	355.216	572.201	125.527	251.455	99.246	15.806
35.338	274.400	493.809	252.470	345.143	570.110	120.913	250.290	95.089	13.154
36.127	278.000	503.655	251.615	350.341	565.864	120.230	250.392	100.804	14.500
36.916	281.200	497.051	235.893	350.266	565.769	115.859	247.141	99.831	12.983
37.705	284.400	511.530	243.034	344.322	565.093	119.317	250.718	92.879	14.834
38.494	287.600	540.504	239.485	336.782	570.060	112.653	251.869	90.927	13.852
39.284	290.800	553.251	224.372	345.322	553.309	107.832	248.239	92.502	14.240
40.072	293.900	544.292	229.017	340.814	572.553	106.290	246.099	91.877	14.551
40.865	297.500	557.624	229.421	334.918	553.448	111.592	246.821	87.060	13.411
41.654	300.600	572.340	228.852	332.392	569.217	106.802	242.562	86.754	13.269
42.446	303.800	576.659	243.021	332.782	554.160	103.656	246.702	91.277	13.990
43.231	306.900	582.768	232.449	334.779	561.003	105.842	245.284	87.883	11.304
44.020	310.000	579.537	228.319	340.321	564.979	107.038	245.077	84.392	11.597
44.811	313.500	575.024	228.731	324.584	559.472	106.998	238.152	85.246	12.997
45.601	316.600	592.232	234.770	339.161	562.554	103.722	241.916	80.090	12.039
46.391	319.700	583.683	225.327	328.695	557.701	107.181	236.712	82.698	12.541
47.181	322.800	585.353	224.625	314.423	550.382	101.595	240.639	83.546	11.594
47.969	325.900	596.983	227.805	316.910	548.648	101.242	238.558	85.060	12.045
48.760	329.100	605.277	231.267	321.833	546.585	99.466	236.163	82.347	12.185
49.545	332.600	596.661	229.336	316.912	550.999	101.163	237.210	85.721	12.504
50.335	335.700	594.573	231.165	314.345	549.646	97.897	232.779	81.184	12.147
51.122	338.800	594.621	225.235	327.001	554.313	98.340	240.764	82.244	13.001
51.913	341.800	592.591	227.123	317.460	546.836	91.785	246.435	78.072	13.320
52.703	344.900	604.034	224.190	310.860	552.012	95.129	238.875	79.808	12.295
53.494	348.000	604.219	229.528	312.112	547.931	96.341	240.539	80.255	11.611
54.281	351.500	613.013	223.269	317.471	548.357	93.262	255.416	82.559	11.800
55.071	354.600	603.945	233.599	311.548	548.489	94.235	249.946	78.668	11.848
55.861	357.700	617.198	222.378	319.840	548.744	97.926	256.646	80.006	11.825
56.652	360.800	617.485	227.638	312.555	548.227	97.424	253.485	81.312	13.408
57.441	363.900	622.417	232.172	309.317	553.959	93.705	257.255	79.607	12.554
58.233	367.500	607.567	236.358	308.449	542.261	94.435	259.866	81.600	12.267
59.026	370.500	607.716	226.660	304.599	548.931	96.090	258.495	82.502	11.556
59.812	373.600	609.451	226.857	304.675	555.602	94.628	259.236	78.555	11.680
60.603	376.700	595.445	237.916	311.465	557.189	98.178	254.410	76.310	11.541
61.392	379.800	587.650	218.080	302.081	557.570	90.903	250.865	74.812	9.529
62.182	382.800	592.550	232.828	305.091	547.463	91.308	252.416	78.536	11.068
62.972	386.300	589.900	228.728	304.834	565.821	93.963	246.059	78.233	11.622
63.763	389.400	583.528	221.367	301.970	573.413	92.028	250.669	77.036	11.867
64.552	392.500	572.812	229.602	298.182	577.009	97.191	247.035	76.537	11.706
65.343	395.600	567.709	223.533	292.444	574.395	90.088	242.066	78.034	11.735
66.132	398.700	571.065	225.496	293.696	592.949	97.926	238.705	74.923	12.402
66.922	402.200	564.422	220.011	300.203	593.240	95.917	240.919	76.586	9.912
67.712	405.200	566.335	228.205	290.818	616.022	92.316	243.158	74.257	13.123
68.503	408.300	560.275	225.401	291.117	610.052	93.212	244.683	77.873	12.990
69.294	411.300	566.405	226.757	294.039	637.050	93.604	246.652	77.810	12.313
70.081	414.400	546.687	228.505	296.434	642.647	93.311	242.256	76.566	10.577
70.872	417.500	560.469	229.698	300.085	652.311	94.857	241.792	75.442	12.166
71.658	421.000	546.877	229.396	297.574	673.115	92.482	242.637	78.568	11.154
72.448	424.100	548.217	227.810	292.401	665.658	95.421	232.972	78.944	11.856
73.237	427.100	536.104	231.806	284.157	661.669	91.008	240.771	81.776	9.598
74.026	430.200	541.602	232.038	290.863	674.893	96.480	235.904	79.391	11.559
74.815	433.300	553.667	224.125	292.861	685.202	96.159	236.531	79.116	10.714
75.601	436.700	549.480	228.068	293.651	690.369	95.425	246.504	79.862	10.772
76.391	439.900	548.173	235.256	282.784	692.639	92.743	239.578	78.718	10.842
77.177	443.000	541.964	223.839	285.281	672.656	90.468	239.592	73.115	10.274
77.967	446.100	537.131	224.707	281.961	695.384	90.869	239.690	70.821	10.094
78.755	449.300	525.117	225.430	280.971	679.399	92.350	224.658	75.594	9.874
79.543	452.400	535.598	225.575	287.041	681.177	89.427	235.649	75.878	11.580
80.331	455.500	529.678	224.237	284.146	678.234	88.435	233.830	77.243	9.454
81.121	459.000	530.676	220.062	285.237	678.020	90.636	236.212	79.391	11.358
81.907	462.000	534.863	231.593	278.449	679.546	92.638	239.433	77.005	11.929
82.696	465.100	517.076	225.705	282.792	663.136	88.914	229.859	81.682	10.278
83.487	468.100	519.785	227.422	269.219	675.015	91.131	229.101	76.680	11.178
84.276	471.200	514.711	221.720	281.309	663.914	91.149	231.815	76.182	11.343
85.063	474.700	523.892	219.897	280.475	659.832	88.604	226.345	76.495	11.344
85.854	477.800	534.254	214.824	277.317	661.913	94.472	231.975	80.149	11.500
86.644	480.900	518.312	214.212	268.786	653.101	90.666	225.978	73.953	10.008
87.434	483.900	512.811	217.793	270.098	654.981	93.099	230.320	77.255	12.406
88.227	487.000	512.824	221.526	274.902	654.740	92.673	226.759	75.254	11.804
89.017	490.100	521.063	219.745	280.559	644.212	91.387	235.730	76.139	12.488
89.807	493.600	516.053	218.271	277.620	642.295	92.059	225.785	78.776	11.011
90.594	496.700	510.736	218.350	274.049	638.645	89.047	229.997	75.666	10.791
91.381	499.800	508.966	221.564	275.793	640.450	90.882	228.947	76.734	11.707
92.165	502.900	503.113	219.128	268.715	625.734	91.453	224.395	79.578	11.526
92.953	505.900	496.373	220.579	275.706	628.755	90.435	224.542	80.008	10.695
93.741	509.000	491.676	215.652	269.124	622.919	94.966	221.529	79.952	12.811
94.526	512.500	502.167	205.285	261.800	611.339	90.170	228.321	77.955	11.716
95.312	515.600	508.833	216.898	266.122	613.445	94.600	227.156	74.450	13.509
96.102	518.600	504.717	210.901	274.497	607.373	91.546	230.074	81.050	13.156
96.891	521.700	505.493	218.249	263.911	614.482	97.124	224.538	81.379	11.660
97.681	524.700	500.776	219.411	271.031	594.552	93.891	225.152	77.286	12.078
98.471	527.800	494.899	210.394	266.573	599.542	96.479	230.746	78.644	10.820
99.258	531.300	494.788	216.478	267.333	599.987	97.328	223.234	84.001	12.200
100.048	534.400	505.950	219.538	273.514	593.182	93.565	230.835	80.211	11.241
100.840	537.500	497.335	211.136	273.159	584.504	100.560	238.886	81.779	10.963
101.628	540.600	492.515	218.319	266.463	583.938	96.812	224.388	82.542	13.976
102.416	543.700	494.173	211.384	268.690	600.065	95.902	226.012	84.076	11.550
103.205	546.800	492.665	215.547	265.569	587.387	100.762	228.728	78.546	13.708
103.995	550.300	508.604	218.392	270.873	589.759	98.248	231.409	85.495	11.322
104.783	553.400	504.648	210.021	275.540	582.744	99.567	233.432	85.134	13.358
105.570	556.400	490.564	224.943	266.446	580.841	100.169	229.450	86.824	13.110
106.357	559.500	489.464	214.287	269.488	586.875	100.930	220.104	87.095	13.396
107.146	562.600	497.518	218.589	264.265	580.815	99.344	227.181	82.566	14.554
107.930	565.700	496.333	217.198	264.360	586.421	102.039	233.586	87.094	13.103
108.718	569.100	500.204	215.313	270.654	577.021	101.797	230.192	87.510	12.776
109.508	572.200	500.571	216.302	267.263	580.792	104.401	229.488	83.562	14.303
110.297	575.300	493.890	216.195	266.372	588.847	100.638	234.185	83.086	13.679
111.087	578.400	488.350	218.387	264.440	572.477	99.052	232.189	85.938	12.904
111.872	581.400	495.213	212.419	267.638	573.058	105.238	226.779	85.455	11.630
112.659	584.500	482.938	221.934	269.773	582.851	103.670	235.298	90.007	13.132
113.447	588.000	490.294	215.547	262.562	564.013	99.114	233.952	88.258	12.873
114.233	591.100	487.915	209.894	261.772	580.123	100.463	221.528	85.263	13.074
115.024	594.200	485.890	214.888	261.437	578.484	105.179	231.403	87.360	12.876
115.815	597.300	490.821	210.583	267.446	583.985	101.278	228.177	84.586	14.125
116.606	600.400	475.521	210.920	272.690	585.217	99.943	229.475	84.427	12.985
117.396	603.500	484.463	211.059	268.074	580.169	100.630	227.820	83.023	12.309
118.186	607.000	478.653	212.275	269.317	572.249	98.927	226.743	84.318	14.278
118.974	610.100	491.886	213.474	258.794	581.783	100.636	228.347	85.105	14.789
119.764	613.300	473.440	210.417	261.485	576.226	96.988	228.871	81.936	10.103
120.558	616.400	467.720	215.845	271.290	591.430	91.789	226.038	80.958	12.608
121.344	619.400	486.027	213.206	265.285	584.793	98.033	228.217	81.156	10.469
122.133	622.900	478.955	212.520	262.721	575.890	98.162	222.227	82.263	12.319
122.922	626.000	485.542	205.131	260.223	577.849	100.426	221.872	79.062	11.778
123.710	629.000	488.612	217.915	258.054	586.524	95.634	223.004	73.549	11.669
124.499	632.100	476.883	213.368	260.256	564.696	92.151	220.258	82.077	13.030
125.284	635.200	469.839	209.297	262.947	574.016	94.409	218.885	76.750	12.807
126.074	638.200	465.488	205.297	261.765	575.445	94.804	224.422	78.907	12.029
126.862	641.800	457.919	212.102	250.875	575.796	90.934	218.085	78.366	11.462
127.652	644.800	462.568	207.555	254.812	574.353	92.326	216.088	76.106	10.923
128.441	647.900	459.273	204.759	253.985	573.636	88.559	217.756	79.212	11.413
129.231	650.900	456.282	207.809	255.468	566.457	88.470	217.663	77.503	10.285
130.021	654.000	455.759	208.489	260.734	575.484	91.450	221.041	76.216	10.621
130.814	657.000	458.667	205.630	254.463	568.674	91.083	216.700	73.712	10.071
131.605	660.600	459.891	209.776	266.676	571.243	91.500	218.925	73.903	9.909
132.397	663.600	454.458	209.026	258.831	580.342	89.171	218.537	72.491	9.546
133.185	666.700	459.621	202.092	260.492	578.555	86.029	217.113	75.374	11.658
133.974	669.800	452.707	197.888	264.550	564.565	90.847	209.165	74.478	9.491
134.763	672.900	453.946	211.033	253.864	582.296	86.500	222.162	70.074	12.003
135.553	676.400	451.278	208.258	253.089	568.349	86.166	217.472	72.547	10.449
136.342	679.400	447.645	204.984	258.117	581.196	88.083	218.816	74.409	11.781
137.131	682.500	443.612	207.945	261.162	570.355	88.574	216.524	69.986	10.636
137.921	685.600	456.145	202.500	251.709	567.937	86.091	213.346	71.489	9.436
138.707	688.700	452.301	201.117	261.692	574.615	83.621	215.551	73.095	9.349
139.495	691.800	438.688	207.833	249.659	575.639	87.242	212.764	70.747	10.960
140.286	695.400	449.364	202.284	254.987	583.955	76.190	219.244	69.291	10.162
141.075	698.400	455.778	206.627	257.422	573.803	82.609	220.723	73.090	10.386
141.863	701.500	457.957	200.725	259.049	573.150	89.932	210.477	72.938	9.760
142.651	704.500	446.105	200.870	258.992	580.878	83.430	209.357	71.532	10.532
143.440	707.600	443.525	203.499	250.290	580.332	82.891	212.880	70.080	10.236
144.229	710.800	445.451	200.048	256.557	583.708	83.252	210.784	70.306	10.439
145.021	714.400	453.125	196.439	253.929	585.072	82.428	216.250	66.545	9.314
145.813	717.600	449.363	197.404	260.864	574.610	80.623	213.823	65.491	10.108
146.604	720.700	437.840	214.520	256.941	566.323	82.424	215.265	66.589	10.341
147.397	723.800	436.362	196.915	263.831	582.183	80.370	217.629	69.012	8.907
148.188	726.800	448.999	200.593	257.215	576.479	77.606	209.388	67.351	8.961
148.975	730.300	436.628	204.674	256.931	575.053	79.538	216.266	70.480	10.158
149.766	733.300	436.519	193.981	260.655	575.809	84.505	210.072	65.941	10.025
150.558	736.400	448.800	196.440	264.596	582.114	79.262	205.022	69.297	10.070
151.345	739.400	439.239	198.506	253.246	575.804	79.179	211.970	66.170	10.990
152.135	742.400	439.861	201.391	265.655	581.166	81.879	214.038	66.070	9.620
152.922	745.400	450.749	202.533	252.404	579.293	74.951	207.490	64.141	9.294
153.710	748.800	443.930	205.273	255.877	570.687	78.440	212.252	61.428	10.970
154.498	751.800	443.460	199.292	262.150	568.750	72.876	209.952	65.640	9.474
155.286	754.800	434.859	200.556	257.895	579.360	76.240	218.252	64.991	10.440
156.075	757.900	439.430	195.350	248.958	573.154	76.273	209.246	65.881	9.129
156.862	761.100	447.318	195.450	257.879	558.892	75.017	211.491	63.141	8.689
157.652	764.200	427.723	197.920	254.819	553.348	76.673	210.907	63.184	9.722
158.441	767.700	442.097	200.640	262.835	569.343	75.529	213.060	67.624	7.930
159.230	770.700	442.126	191.112	252.239	577.355	76.739	208.487	65.113	9.748
160.020	773.800	438.497	197.480	254.878	567.872	78.289	209.766	62.767	11.567
160.810	777.000	445.569	190.870	257.395	568.427	72.475	212.515	67.143	7.635
161.601	780.200	445.299	196.476	257.652	563.827	74.953	213.209	61.745	8.739
162.392	783.700	441.970	197.769	261.177	565.681	73.393	213.873	63.945	8.942
163.183	786.700	422.557	189.335	264.214	576.630	74.562	209.783	61.214	8.573
163.972	789.700	437.256	199.316	257.058	569.436	75.352	211.612	63.177	8.951
164.759	792.800	439.651	192.597	257.114	565.291	75.644	216.698	61.708	9.182
165.549	795.900	431.531	193.321	254.424	570.174	73.021	214.668	59.781	8.268
166.339	799.000	426.807	191.878	255.156	564.802	72.291	208.984	61.723	8.521
167.129	802.500	431.550	193.289	256.190	574.160	78.030	210.166	59.048	9.950
167.922	805.500	440.700	198.822	260.576	568.806	71.201	213.755	62.717	8.175
168.707	808.600	436.656	191.756	259.699	581.094	70.597	207.525	62.664	8.487
169.493	811.700	427.574	197.991	257.839	575.562	75.423	209.688	61.984	8.281
170.283	814.800	440.223	197.556	265.020	583.462	72.974	209.020	57.243	8.261
171.073	818.300	429.491	195.548	259.376	585.789	68.654	212.225	59.528	9.224
171.854	821.300	434.326	200.104	267.998	594.806	74.679	211.371	59.770	9.687
172.639	824.400	435.789	196.279	264.504	582.231	69.513	201.238	59.703	9.107
173.423	827.400	434.850	198.859	260.444	607.731	69.251	210.158	61.446	7.983
174.213	830.500	444.854	198.717	262.451	589.877	66.958	208.237	59.310	8.608
174.999	833.500	431.716	196.019	264.637	608.888	72.450	208.174	61.180	7.827
175.789	836.600	425.850	203.034	259.415	605.152	66.848	205.311	59.612	7.412
176.579	840.200	426.017	196.056	257.882	606.288	72.720	205.397	54.215	8.254
177.367	843.300	429.451	196.611	270.751	609.521	71.852	203.319	58.091	7.932
178.159	846.300	422.307	197.367	257.790	614.505	66.602	207.468	60.362	7.143
178.949	849.400	429.532	199.376	264.728	612.938	68.487	203.466	55.282	7.581
179.739	852.500	424.978	184.933	264.676	620.285	66.928	212.653	61.410	7.956
180.529	855.600	426.148	193.950	269.219	617.246	70.861	201.217	59.565	9.266
181.319	859.100	428.335	208.167	268.310	613.859	69.492	206.219	58.471	7.199
182.110	862.200	435.713	191.519	263.846	610.714	66.311	208.821	60.521	6.573
182.899	865.300	428.975	193.890	262.948	625.134	67.408	209.710	57.859	8.267
183.687	868.400	440.205	197.201	267.982	623.596	68.930	207.086	55.987	7.591
184.477	871.600	437.729	204.509	270.856	622.554	69.248	205.272	59.298	8.539
185.265	875.200	425.716	198.850	269.663	629.739	67.937	207.065	56.374	7.445
186.050	878.300	432.126	199.167	266.985	626.632	68.909	207.119	53.952	6.517
186.838	881.400	428.127	198.374	268.157	620.746	70.014	205.431	53.470	8.271
187.628	884.500	429.075	200.780	268.323	619.948	62.386	204.202	56.120	7.774
188.416	887.600	430.057	193.480	270.982	620.954	65.956	205.797	53.769	9.251
189.203	890.700	422.971	196.075	273.997	614.537	67.665	203.922	58.415	7.682
189.988	893.800	437.472	192.415	264.561	612.702	67.449	207.853	55.286	6.376
190.777	897.300	423.815	199.322	270.090	615.303	68.411	208.955	57.799	8.816
191.567	900.300	424.448	198.094	275.435	619.676	64.231	207.178	54.597	6.648
192.359	903.300	430.868	205.031	276.422	595.472	64.652	196.972	56.478	7.941
193.146	906.400	423.570	190.951	264.911	598.050	63.066	206.600	55.412	6.777
193.933	909.500	423.570	191.640	275.414	601.450	68.245	208.063	56.759	7.887
194.722	913.000	426.257	188.588	271.247	592.505	68.445	208.505	55.191	6.466
195.513	916.000	431.498	186.133	272.851	592.610	60.827	212.626	52.983	6.754
196.300	919.100	426.575	191.578	275.010	593.677	63.510	201.111	51.675	7.302
197.092	922.100	431.058	201.348	278.817	585.601	65.926	207.231	53.756	8.725
197.884	925.100	413.941	196.418	276.541	594.399	67.564	219.564	53.413	6.884
198.675	928.100	432.302	193.438	275.469	593.628	61.732	206.414	55.232	6.232
199.465	931.600	434.760	188.740	275.713	590.403	63.824	208.094	55.476	6.967
200.253	934.700	431.983	190.342	275.809	573.440	64.513	201.297	54.578	6.994
201.044	937.800	429.752	188.218	277.948	577.709	63.121	213.452	51.093	7.339
201.833	940.800	426.641	197.715	287.131	587.065	61.834	204.773	53.386	7.082
202.623	943.800	434.693	189.984	278.875	574.946	62.777	203.141	52.304	6.503
203.411	947.200	436.696	194.242	283.267	586.028	63.102	207.176	53.047	7.396
