Tue, Jun 06, 2017	11:17 AM
 Notes: 6_6_2017_AA_0 L
 waiting time: 50.000
 time(ms)	 temp (K)	 MS1=61.297	 MS2=13.681	 MS3=17.903	 MS4=28.270	 MS5=29.393	 MS6=44.784	 MS7=61.297	 MS8=65.626
0.000	86.100	310.000
0.138	86.100	440.000
0.423	86.100	100.000
0.609	86.100	110.000
0.786	86.100	210.000
0.953	86.100	300.000
1.180	86.100	170.000
1.388	86.100	120.000
1.570	86.100	160.000
1.703	86.100	70.000
1.888	86.100	160.000
2.035	86.100	140.000
2.179	86.000	100.000
2.356	86.000	130.000
2.504	86.000	30.000
2.680	86.000	170.000
2.827	86.100	270.000
2.977	86.100	90.000
3.155	86.100	200.000
3.315	86.000	200.000
3.454	86.000	130.000
3.600	86.000	240.000
3.738	86.000	240.000
3.876	86.000	240.000
4.017	86.000	150.000
4.202	86.000	140.000
4.342	86.000	180.000
4.488	86.000	180.000
4.632	86.000	340.000
4.775	86.000	300.000
4.914	86.000	70.000
5.092	86.000	150.000
5.231	86.000	190.000
5.437	85.900	230.000
5.635	85.900	310.000
5.773	85.900	310.000
5.912	86.000	440.000
6.064	86.000	360.000
6.202	86.000	260.000
6.341	85.900	180.000
6.492	85.900	110.000
6.630	85.900	290.000
6.805	85.900	50.000
6.950	85.900	120.000
7.089	85.900	90.000
7.227	85.900	220.000
7.366	85.800	110.000
7.513	85.800	160.000
7.651	85.900	330.000
7.818	85.900	310.000
7.974	85.900	220.000
8.112	85.900	220.000
8.251	85.900	240.000
8.390	85.900	310.000
8.550	85.900	330.000
8.690	85.900	250.000
8.835	85.900	240.000
8.974	86.000	110.000
9.113	86.000	160.000
9.287	86.000	250.000
9.425	86.000	370.000
9.564	86.100	120.000
9.713	86.100	370.000
9.862	86.100	280.000
10.011	86.200	180.000
10.175	86.200	410.000
10.352	86.300	350.000
10.508	86.400	230.000
10.662	86.600	280.000
10.809	86.700	290.000
10.961	86.800	150.000
11.101	86.900	300.000
11.257	87.000	530.000
11.414	87.100	440.000
11.553	87.400	560.000
11.700	87.600	200.000
11.859	87.700	310.000
12.005	87.900	440.000
12.175	88.300	340.000
12.322	88.700	320.000
12.471	88.900	530.000
12.610	89.100	300.000
12.763	89.500	160.000
12.901	89.800	470.000
13.040	90.000	550.000
13.180	90.500	450.000
13.321	90.800	280.000
13.459	91.100	440.000
13.620	91.300	390.000
13.787	91.900	400.000
13.935	92.100	580.000
14.075	92.700	670.000
14.249	93.000	400.000
14.388	93.300	380.000
14.527	93.900	330.000
14.666	94.200	340.000
14.824	94.800	300.000
14.963	95.100	420.000
15.118	95.500	510.000
15.256	95.800	670.000
15.396	96.400	410.000
15.541	96.800	410.000
15.679	97.100	490.000
15.819	97.400	630.000
15.958	98.100	370.000
16.097	98.400	670.000
16.243	98.700	570.000
16.444	99.400	660.000
16.582	99.700	620.000
16.731	100.400	420.000
16.884	100.700	700.000
17.022	101.300	440.000
17.163	101.600	640.000
17.302	102.000	650.000
17.475	102.300	760.000
17.614	102.900	480.000
17.776	103.200	480.000
17.916	103.900	600.000
18.067	104.200	490.000
18.236	104.800	620.000
18.390	105.100	390.000
18.531	105.400	580.000
18.678	105.700	580.000
18.830	106.300	680.000
18.980	106.700	550.000
19.125	107.300	350.000
19.277	107.600	600.000
19.425	107.900	510.000
19.578	108.500	700.000
19.717	108.900	620.000
19.857	109.200	390.000
19.996	109.500	460.000
20.136	110.100	760.000
20.285	110.400	520.000
20.424	110.700	650.000
20.562	111.400	690.000
20.701	111.700	770.000
20.863	112.000	550.000
21.013	112.600	630.000
21.151	112.900	750.000
21.289	113.200	570.000
21.429	113.900	510.000
21.588	114.200	500.000
21.747	114.500	790.000
21.884	115.100	410.000
22.031	115.400	840.000
22.170	115.700	610.000
22.311	116.400	470.000
22.451	116.700	700.000
22.589	117.000	610.000
22.728	117.300	630.000
22.867	117.600	710.000
23.006	118.000	730.000
23.166	118.600	710.000
23.316	119.200	710.000
23.454	119.500	610.000
23.592	119.800	560.000
23.731	120.100	590.000
23.870	120.800	700.000
24.008	121.100	700.000
24.148	121.400	730.000
24.309	122.000	830.000
24.446	122.300	510.000
24.585	122.600	640.000
24.752	123.300	810.000
24.891	123.600	670.000
25.031	123.600	800.000
25.169	124.600	450.000
25.307	124.900	870.000
25.461	125.200	880.000
25.600	125.500	870.000
25.749	126.200	780.000
25.888	126.500	680.000
26.027	126.800	600.000
26.166	127.400	830.000
26.333	127.800	700.000
26.472	128.100	790.000
26.612	128.400	550.000
26.771	129.000	770.000
26.926	129.700	760.000
27.066	130.000	760.000
27.205	130.300	730.000
27.345	130.600	870.000
27.483	131.200	980.000
27.623	131.500	860.000
27.788	131.500	800.000
27.944	132.500	840.000
28.083	132.800	530.000
28.222	133.100	690.000
28.361	133.400	640.000
28.501	134.100	910.000
28.639	134.400	740.000
28.777	134.700	850.000
28.932	135.300	830.000
29.104	135.700	840.000
29.248	136.400	700.000
29.389	136.700	720.000
29.540	137.000	880.000
29.690	137.300	690.000
29.838	138.000	550.000
29.988	138.300	840.000
30.136	138.900	680.000
30.289	139.200	890.000
30.448	139.500	950.000
30.601	140.200	820.000
30.750	140.500	700.000
30.898	141.200	760.000
31.042	141.500	700.000
31.186	141.800	870.000
31.331	142.500	920.000
31.484	142.800	650.000
31.662	143.400	830.000
31.818	143.700	820.000
31.962	144.100	790.000
32.120	144.700	990.000
32.274	145.000	700.000
32.414	145.300	780.000
32.553	145.600	850.000
32.694	146.300	800.000
32.849	146.600	750.000
32.989	147.300	740.000
33.138	147.600	940.000
33.277	147.900	830.000
33.416	148.200	880.000
33.555	148.900	910.000
33.694	149.200	730.000
33.833	149.500	960.000
33.971	150.200	910.000
34.115	150.500	860.000
34.254	150.800	850.000
34.393	151.100	960.000
34.532	151.400	960.000
34.670	152.100	890.000
34.809	152.400	940.000
34.948	152.700	720.000
35.089	153.400	930.000
35.254	153.700	910.000
35.401	154.000	870.000
35.539	154.600	860.000
35.679	155.000	910.000
35.836	155.300	1000.000
35.988	156.000	1050.000
36.127	156.300	810.000
36.266	156.600	910.000
36.405	157.200	930.000
36.544	157.600	860.000
36.703	157.900	780.000
36.862	158.500	750.000
37.018	158.800	1010.000
37.158	159.200	900.000
37.304	159.800	730.000
37.452	160.100	1000.000
37.591	160.800	860.000
37.731	161.100	950.000
37.870	161.400	800.000
38.009	161.700	790.000
38.148	162.100	950.000
38.286	162.700	800.000
38.426	163.000	950.000
38.566	163.300	920.000
38.706	164.000	890.000
38.845	164.000	830.000
38.984	164.700	880.000
39.123	165.000	940.000
39.264	165.600	860.000
39.402	165.900	870.000
39.563	166.300	930.000
39.702	166.900	850.000
39.841	167.300	1070.000
39.981	167.600	1030.000
40.121	167.900	960.000
40.303	168.500	880.000
40.442	168.800	790.000
40.581	169.500	900.000
40.719	169.900	860.000
40.859	170.200	1010.000
41.016	170.500	1010.000
41.168	171.100	970.000
41.317	171.400	990.000
41.495	172.100	1020.000
41.634	172.400	960.000
41.773	173.000	710.000
41.913	173.400	900.000
42.052	173.700	930.000
42.191	174.000	940.000
42.331	174.600	950.000
42.470	175.000	960.000
42.609	175.300	920.000
42.749	175.600	890.000
42.888	176.300	930.000
43.028	176.600	1050.000
43.167	176.900	980.000
43.307	177.300	1010.000
43.446	177.900	960.000
43.585	178.200	960.000
43.723	178.500	1030.000
43.888	179.200	990.000
44.027	179.500	1010.000
44.167	179.800	1010.000
44.306	180.100	1000.000
44.446	180.500	960.000
44.586	181.100	910.000
44.726	181.400	1000.000
44.865	182.100	960.000
45.005	182.400	1060.000
45.147	182.700	1020.000
45.287	183.100	870.000
45.426	183.400	860.000
45.567	184.000	1030.000
45.722	184.400	970.000
45.861	185.000	960.000
46.002	185.300	1010.000
46.142	185.700	940.000
46.281	186.000	1030.000
46.423	186.600	900.000
46.564	186.600	960.000
46.703	187.300	910.000
46.842	187.900	940.000
46.982	188.300	930.000
47.142	188.600	990.000
47.282	189.200	1000.000
47.431	189.600	980.000
47.570	189.900	990.000
47.709	190.200	990.000
47.849	190.900	1050.000
47.988	191.200	980.000
48.127	191.500	970.000
48.266	192.200	980.000
48.405	192.500	1020.000
48.544	192.800	1030.000
48.684	193.100	990.000
48.823	193.800	990.000
48.963	194.100	1070.000
49.103	194.500	1000.000
49.241	194.800	1000.000
49.380	195.400	980.000
49.519	195.700	880.000
49.659	196.100	1030.000
49.800	196.400	1020.000
49.939	197.000	1080.000
50.078	197.400	1030.000
50.235	197.700	1040.000
50.398	198.400	1010.000
50.538	198.700	1030.000
50.677	199.300	920.000
50.817	199.300	1130.000
50.956	200.000	1040.000
51.096	200.300	970.000
51.236	201.000	1050.000
51.376	201.000	1030.000
51.515	201.600	1010.000
51.655	201.900	1090.000
51.795	202.600	1040.000
51.941	202.900	1110.000
52.080	203.200	1020.000
52.277	203.900	1100.000
52.417	204.200	1040.000
52.556	204.200	1080.000
52.696	205.200	1120.000
52.835	205.500	950.000
52.992	205.800	1020.000
53.142	206.200	1070.000
53.281	206.800	930.000
53.421	207.100	1070.000
53.571	207.800	1030.000
53.711	208.100	1040.000
53.851	208.500	1020.000
53.991	209.100	1180.000
54.131	209.400	1020.000
54.271	209.800	1030.000
54.438	210.400	970.000
54.578	210.700	1050.000
54.717	211.000	1040.000
54.867	211.400	1140.000
55.008	212.000	1000.000
55.148	212.300	1090.000
55.287	212.600	1060.000
55.426	213.300	1000.000
55.567	213.600	1060.000
55.707	214.000	1160.000
55.857	214.300	1140.000
55.997	214.600	1150.000
56.169	215.300	1020.000
56.308	215.900	1200.000
56.462	216.200	1070.000
56.612	216.600	1120.000
56.762	216.900	1080.000
56.903	217.600	1070.000
57.043	217.900	1100.000
57.182	218.500	1020.000
57.322	218.900	1190.000
57.461	219.200	960.000
57.602	219.500	1070.000
57.741	220.200	1120.000
57.880	220.500	1210.000
58.038	220.800	1040.000
58.178	221.500	1010.000
58.320	221.800	1040.000
58.459	222.100	1100.000
58.599	222.400	1200.000
58.739	223.100	1050.000
58.878	223.400	1190.000
59.018	223.700	1080.000
59.158	224.400	1030.000
59.298	224.700	1140.000
59.438	225.000	1130.000
59.578	225.400	1090.000
59.739	226.000	1110.000
59.896	226.300	1110.000
60.036	227.000	1060.000
60.176	227.300	1260.000
60.316	227.600	1200.000
60.472	228.300	1130.000
60.612	228.600	1070.000
60.752	229.000	1080.000
60.891	229.300	1080.000
61.030	229.900	1180.000
61.170	230.300	1040.000
61.309	230.600	1240.000
61.449	230.900	1180.000
61.589	231.200	1130.000
61.731	231.900	1150.000
61.871	232.200	1320.000
62.011	232.500	1120.000
62.151	233.200	1080.000
62.290	233.500	1100.000
62.430	233.800	1220.000
62.570	234.100	1120.000
62.725	234.800	1070.000
62.865	235.100	1340.000
63.005	235.400	1060.000
63.144	236.100	1130.000
63.284	236.400	1180.000
63.425	236.700	1260.000
63.565	237.400	1140.000
63.704	237.700	1280.000
63.844	238.000	1230.000
63.995	238.400	1140.000
64.136	239.000	1040.000
64.285	239.300	1210.000
64.427	239.700	1170.000
64.566	240.300	1320.000
64.704	240.700	1300.000
64.855	241.000	1140.000
64.993	241.600	1180.000
65.133	242.000	1090.000
65.272	242.300	1150.000
65.412	242.600	1110.000
65.563	243.300	1160.000
65.703	243.600	1150.000
65.841	243.900	1110.000
65.981	244.600	1380.000
66.120	244.900	1370.000
66.259	245.200	1120.000
66.398	245.600	1140.000
66.539	246.200	1240.000
66.679	246.500	1160.000
66.818	246.900	1230.000
66.958	247.200	1230.000
67.121	247.800	1140.000
67.259	248.200	1190.000
67.398	248.500	1170.000
67.546	248.800	1240.000
67.693	249.500	1040.000
67.832	249.800	1260.000
67.972	250.500	1270.000
68.112	250.500	1140.000
68.252	251.100	1250.000
68.390	251.400	1090.000
68.531	251.800	1200.000
68.670	252.400	1180.000
68.808	252.800	1240.000
68.955	253.100	1320.000
69.095	253.700	1240.000
69.234	254.000	1060.000
69.372	254.400	1180.000
69.520	255.000	1210.000
69.659	255.400	1150.000
69.818	255.700	1150.000
69.956	256.300	1220.000
70.097	256.600	1140.000
70.243	257.000	1200.000
70.383	257.600	1210.000
70.523	257.900	1200.000
70.662	258.300	1210.000
70.801	258.300	1440.000
70.942	259.300	1320.000
71.082	259.600	1220.000
71.243	259.900	1330.000
71.392	260.200	1350.000
71.532	260.900	1480.000
71.674	261.200	1520.000
71.814	261.500	1220.000
71.965	262.200	1260.000
72.115	262.500	1300.000
72.262	263.100	1210.000
72.402	263.500	1250.000
72.543	263.800	1270.000
72.681	264.100	1100.000
72.821	264.800	1120.000
72.962	265.100	1340.000
73.101	265.400	1410.000
73.240	266.100	1220.000
73.382	266.400	1200.000
73.520	266.700	1280.000
73.661	267.100	1350.000
73.800	267.700	1340.000
73.939	268.100	1350.000
74.080	268.400	1360.000
74.222	268.700	1510.000
74.361	269.400	1380.000
74.529	269.700	1470.000
74.668	270.000	1140.000
74.828	270.700	1210.000
74.975	271.000	1470.000
75.116	271.600	1560.000
75.271	271.900	1290.000
75.409	272.300	1630.000
75.549	272.600	1370.000
75.689	273.200	1310.000
75.830	273.500	1330.000
75.969	273.900	1250.000
76.108	274.500	1300.000
76.269	274.900	1400.000
76.408	275.200	1320.000
76.547	275.800	1490.000
76.686	276.200	1500.000
76.825	276.500	1460.000
76.965	276.500	1420.000
77.104	277.100	1200.000
77.244	277.800	1600.000
77.383	278.100	1260.000
77.523	278.800	1580.000
77.665	278.800	1560.000
77.804	279.400	1270.000
77.943	279.800	1400.000
78.082	280.400	1370.000
78.223	280.700	1340.000
78.361	281.100	1290.000
78.501	281.400	1420.000
78.640	282.100	1500.000
78.781	282.400	1690.000
78.920	282.700	1600.000
79.059	283.100	1490.000
79.199	283.700	1640.000
79.339	284.100	1480.000
79.479	284.400	1550.000
79.619	284.700	1540.000
79.770	285.400	1470.000
79.916	285.700	1480.000
80.064	286.400	1210.000
80.206	286.700	1510.000
80.346	287.000	1400.000
80.486	287.300	1530.000
80.624	288.000	1350.000
80.765	288.300	1600.000
80.904	288.600	1400.000
81.045	289.000	1290.000
81.185	289.300	1210.000
81.337	290.000	1420.000
81.486	290.600	1510.000
81.626	290.900	1490.000
81.766	291.300	1440.000
81.907	291.600	1690.000
82.047	292.300	1470.000
82.187	292.600	1450.000
82.347	292.900	1430.000
82.497	293.600	1550.000
82.637	293.900	1670.000
82.778	294.200	1400.000
82.917	294.600	1420.000
83.061	294.900	1480.000
83.201	295.500	1420.000
83.341	295.900	1480.000
83.481	296.500	1640.000
83.629	296.800	1370.000
83.770	297.200	1300.000
83.909	297.500	1270.000
84.056	298.100	1600.000
84.196	298.500	1520.000
84.335	298.800	1530.000
84.476	299.100	1770.000
84.629	299.800	1480.000
84.768	300.100	1560.000
84.923	300.700	1750.000
85.063	301.100	1610.000
85.209	301.400	1530.000
85.348	302.000	1630.000
85.488	302.000	1350.000
85.629	302.700	1430.000
85.769	303.000	1470.000
85.908	303.700	1680.000
86.048	304.000	1630.000
86.188	304.300	1750.000
86.328	305.000	1350.000
86.487	305.300	1790.000
86.631	305.600	1730.000
86.772	306.300	1660.000
86.912	306.600	1650.000
87.052	306.900	1680.000
87.191	306.900	1450.000
87.331	307.900	1660.000
87.470	308.200	1550.000
87.611	308.500	1610.000
87.752	308.900	1590.000
87.892	309.500	1500.000
88.032	309.900	1610.000
88.173	310.200	1620.000
88.311	310.500	1570.000
88.465	311.100	1440.000
88.605	311.500	1450.000
88.745	311.800	1770.000
88.884	312.500	1500.000
89.024	312.800	1640.000
89.163	313.100	1470.000
89.302	313.800	1470.000
89.442	314.100	1460.000
89.582	314.400	1570.000
89.722	314.800	1630.000
89.861	315.100	1620.000
90.001	315.700	1560.000
90.141	316.100	1890.000
90.281	316.700	1570.000
90.420	317.000	1590.000
90.580	317.400	1770.000
90.728	318.000	1580.000
90.870	318.300	1870.000
91.010	318.700	1540.000
91.150	319.000	1730.000
91.290	319.600	1700.000
91.430	320.000	1540.000
91.570	320.300	1580.000
91.710	320.600	1690.000
91.852	321.300	1790.000
91.993	321.600	1700.000
92.132	321.900	1830.000
92.273	322.600	1770.000
92.412	322.900	1610.000
92.552	323.300	1680.000
92.692	323.600	1610.000
92.832	324.200	1810.000
92.972	324.600	1680.000
93.112	324.900	1810.000
93.252	325.200	1750.000
93.392	325.200	1950.000
93.532	326.200	1780.000
93.672	326.500	1630.000
93.813	327.200	1760.000
93.952	327.500	1740.000
94.092	327.800	1740.000
94.232	328.100	1740.000
94.372	328.800	1500.000
94.513	329.100	1670.000
94.653	329.400	1610.000
94.812	330.100	1590.000
94.952	330.400	1630.000
95.093	330.700	1770.000
95.240	331.000	1740.000
95.380	331.700	1790.000
95.519	332.000	1820.000
95.659	332.400	1490.000
95.799	333.000	1690.000
95.947	333.300	1600.000
96.086	333.700	1770.000
96.225	334.300	1550.000
96.365	334.700	1670.000
96.505	335.000	1660.000
96.644	335.300	1720.000
96.786	335.700	1870.000
96.926	336.300	1810.000
97.072	336.600	1630.000
97.212	337.000	1640.000
97.352	337.600	1550.000
97.491	338.000	1740.000
97.649	338.300	1820.000
97.788	338.600	1800.000
97.932	339.200	1720.000
98.072	339.600	1790.000
98.211	340.200	1690.000
98.352	340.600	1840.000
98.493	340.900	1660.000
98.633	341.200	1730.000
98.773	341.800	1670.000
98.936	342.200	1920.000
99.076	342.500	1890.000
99.216	342.800	1850.000
99.356	343.500	1850.000
99.495	343.800	1900.000
99.634	344.100	1920.000
99.774	344.800	1770.000
99.914	345.100	1690.000
100.054	345.400	1730.000
100.194	345.800	1690.000
100.337	346.400	1990.000
100.478	346.700	1890.000
100.617	347.100	1940.000
100.756	347.700	1870.000
100.896	348.000	1970.000
101.034	348.400	1950.000
101.174	349.000	1830.000
101.313	349.300	1720.000
101.476	349.700	1820.000
101.616	349.700	1860.000
101.755	350.600	1980.000
101.894	351.000	1840.000
102.034	351.300	2030.000
102.174	352.000	1940.000
102.315	352.300	1940.000
102.456	352.600	1880.000
102.595	352.900	1790.000
102.735	353.300	1940.000
102.874	353.900	1890.000
103.014	354.300	1920.000
103.153	354.600	1900.000
103.308	355.200	2010.000
103.448	355.600	1920.000
103.588	355.900	1880.000
103.728	356.200	1920.000
103.867	356.900	1980.000
104.006	357.200	1950.000
104.145	357.600	1920.000
104.284	357.900	1990.000
104.423	358.500	1820.000
104.564	358.800	1860.000
104.702	359.500	1690.000
104.865	359.800	1890.000
105.005	360.100	1840.000
105.146	360.800	1940.000
105.286	361.100	1900.000
105.426	361.500	2020.000
105.576	362.100	1940.000
105.716	362.100	1820.000
105.861	362.800	1920.000
105.999	363.100	1820.000
106.138	363.800	1950.000
106.283	364.100	1990.000
106.423	364.400	1890.000
106.561	364.800	1880.000
106.714	365.400	1980.000
106.854	365.700	1780.000
106.993	366.000	1720.000
107.132	366.400	1860.000
107.273	367.000	1910.000
107.412	367.400	2010.000
107.552	367.700	1900.000
107.717	368.400	1910.000
107.857	368.700	1930.000
107.997	369.000	1960.000
108.139	369.300	1900.000
108.279	370.000	1940.000
108.417	370.300	1790.000
108.556	371.000	1940.000
108.697	371.300	1950.000
108.838	371.600	1980.000
108.976	372.000	1970.000
109.116	372.600	1970.000
109.255	372.900	1830.000
109.394	373.200	1960.000
109.535	373.900	1800.000
109.674	373.900	2110.000
109.813	374.500	2010.000
109.952	374.900	1880.000
110.090	375.500	1910.000
110.230	375.800	1990.000
110.369	376.200	1990.000
110.510	376.500	2030.000
110.649	377.100	2020.000
110.790	377.500	2070.000
110.951	377.800	1950.000
111.091	378.500	1870.000
111.230	378.800	1970.000
111.370	379.100	1940.000
111.508	379.400	2010.000
111.647	380.100	1910.000
111.787	380.400	2100.000
111.926	380.400	1940.000
112.066	381.100	1970.000
112.205	381.800	1950.000
112.345	382.100	1920.000
112.484	382.400	1950.000
112.623	382.700	2020.000
112.763	383.400	1940.000
112.902	383.700	2010.000
113.041	384.100	2030.000
113.181	384.700	2020.000
113.320	385.000	2000.000
113.458	385.400	1950.000
113.597	385.700	1900.000
113.736	386.300	2050.000
113.876	386.700	1920.000
114.015	387.000	2090.000
114.153	387.300	2030.000
114.292	388.000	1930.000
114.431	388.300	1990.000
114.606	388.600	2020.000
114.746	388.900	1990.000
114.886	389.600	2030.000
115.028	389.900	2010.000
115.168	390.600	2010.000
115.307	390.900	1830.000
115.446	391.200	1870.000
115.585	391.800	1850.000
115.725	391.800	1970.000
115.871	392.500	2130.000
116.011	392.800	1990.000
116.151	393.500	2070.000
116.290	393.800	1960.000
116.430	394.100	2000.000
116.569	394.500	2030.000
116.711	394.800	1970.000
116.851	395.400	2030.000
116.999	395.800	2030.000
117.137	396.400	1980.000
117.276	396.800	1960.000
117.415	397.100	2060.000
117.555	397.400	2070.000
117.695	398.100	2040.000
117.836	398.400	2020.000
117.974	398.700	2100.000
118.114	399.100	2000.000
118.253	399.700	1980.000
118.392	400.000	2110.000
118.531	400.400	1920.000
118.671	401.000	2060.000
118.811	401.300	2010.000
118.970	401.700	2020.000
119.110	402.000	2010.000
119.250	402.600	1980.000
119.395	403.000	2040.000
119.535	403.300	2110.000
119.673	403.900	2010.000
119.813	404.300	2120.000
119.953	404.600	1890.000
120.092	405.300	2160.000
120.232	405.600	2010.000
120.372	405.900	2040.000
120.538	406.600	1990.000
120.677	406.900	2100.000
120.835	407.200	2100.000
