Tue, Jun 06, 2017	12:41 PM
 Notes: 6_6_2017_AA_0.02 L
 waiting time: 50.000
 time(ms)	 temp (K)	 MS1=61.297	 MS2=28.217	 MS3=17.903	 MS4=28.270	 MS5=29.393	 MS6=44.784	 MS7=61.297	 MS8=65.626
0.000	85.700	5840.000
0.175	85.700	5680.000
0.329	85.800	5460.000
0.482	85.700	5740.000
0.635	85.700	5330.000
0.789	85.700	5670.000
0.942	85.700	5410.000
1.095	85.700	5680.000
1.250	85.700	5640.000
1.403	85.700	5710.000
1.556	85.700	5790.000
1.710	85.700	5740.000
1.862	85.700	5630.000
2.017	85.700	5840.000
2.170	85.700	5890.000
2.322	85.700	5450.000
2.479	85.700	5920.000
2.632	85.700	5780.000
2.785	85.700	5560.000
2.939	85.800	5980.000
3.092	85.700	5600.000
3.245	85.700	5840.000
3.398	85.700	5630.000
3.551	85.700	5660.000
3.704	85.700	5590.000
3.858	85.700	5740.000
4.011	85.700	5840.000
4.164	85.700	5590.000
4.318	85.800	5570.000
4.472	85.800	5750.000
4.624	85.800	5670.000
4.777	85.800	5740.000
4.932	85.800	5630.000
5.085	85.800	5650.000
5.240	85.800	5960.000
5.394	85.800	5730.000
5.547	85.800	5740.000
5.699	85.800	5590.000
5.853	85.800	5710.000
6.007	85.800	5690.000
6.162	85.800	5750.000
6.315	85.900	5570.000
6.468	85.900	6020.000
6.620	86.000	5650.000
6.773	86.000	5690.000
6.927	86.100	5630.000
7.080	86.200	5720.000
7.233	86.200	5650.000
7.386	86.400	5750.000
7.540	86.400	5660.000
7.693	86.600	5780.000
7.845	86.700	5940.000
7.999	86.800	5690.000
8.152	87.000	5670.000
8.306	87.100	5550.000
8.459	87.300	5480.000
8.612	87.400	5910.000
8.765	87.600	5790.000
8.918	87.800	5600.000
9.071	88.000	5690.000
9.225	88.300	5880.000
9.378	88.700	5760.000
9.532	88.900	5740.000
9.688	89.000	5530.000
9.840	89.400	5710.000
9.994	89.900	5610.000
10.149	90.200	5720.000
10.302	90.400	5700.000
10.454	90.900	5880.000
10.607	91.200	5570.000
10.762	91.500	5630.000
10.916	92.000	5810.000
11.070	92.200	5720.000
11.223	92.800	5560.000
11.376	93.100	5610.000
11.530	93.400	5450.000
11.683	94.000	5490.000
11.837	94.300	5680.000
11.991	94.600	5540.000
12.143	94.600	5410.000
12.297	95.500	5470.000
12.449	96.100	5730.000
12.603	96.400	5540.000
12.755	96.800	5580.000
12.909	97.400	5660.000
13.062	97.800	5480.000
13.216	98.400	5780.000
13.368	98.700	5530.000
13.522	99.400	5430.000
13.675	99.700	5720.000
13.828	100.000	5680.000
13.981	100.700	5520.000
14.134	101.000	5550.000
14.288	101.600	5550.000
14.441	102.000	5800.000
14.595	102.300	5560.000
14.749	102.900	5640.000
14.903	103.200	5550.000
15.056	103.900	5450.000
15.209	104.200	5740.000
15.364	104.500	5570.000
15.517	105.100	5430.000
15.671	105.400	5460.000
15.824	105.800	5720.000
15.978	106.500	5630.000
16.130	106.800	5790.000
16.284	107.400	5500.000
16.437	107.700	5720.000
16.591	108.000	5570.000
16.745	108.700	5570.000
16.899	109.000	5640.000
17.051	109.600	5680.000
17.204	109.900	5660.000
17.359	110.200	5840.000
17.514	110.800	5550.000
17.668	111.100	5550.000
17.821	111.700	5550.000
17.974	112.000	5730.000
18.128	112.300	5710.000
18.280	112.700	5530.000
18.434	113.400	5830.000
18.589	114.000	5610.000
18.741	114.300	5630.000
18.895	114.600	5720.000
19.049	115.200	5700.000
19.202	115.500	5490.000
19.356	116.200	5490.000
19.511	116.500	5330.000
19.664	116.800	5610.000
19.818	117.500	5870.000
19.972	117.800	5570.000
20.126	118.400	5800.000
20.279	118.700	5580.000
20.433	119.000	5850.000
20.587	119.700	5570.000
20.741	120.000	5710.000
20.895	120.600	5630.000
21.047	120.900	5480.000
21.202	121.200	5540.000
21.356	121.900	5420.000
21.509	122.200	5660.000
21.663	122.800	5580.000
21.818	123.100	5720.000
21.972	123.400	5750.000
22.124	124.100	5820.000
22.279	124.400	5460.000
22.433	124.700	5650.000
22.585	125.400	5590.000
22.739	125.700	5620.000
22.893	126.300	5760.000
23.046	126.600	5970.000
23.200	127.200	5750.000
23.353	127.600	5540.000
23.507	127.900	5710.000
23.660	128.600	5750.000
23.813	128.900	5630.000
23.966	129.200	5580.000
24.119	129.800	5720.000
24.273	130.100	5750.000
24.428	130.700	5620.000
24.582	131.100	5860.000
24.735	131.700	5870.000
24.889	132.000	5480.000
25.044	132.300	5470.000
25.197	133.000	5450.000
25.352	133.300	5410.000
25.505	133.900	5640.000
25.659	134.300	5650.000
25.812	134.600	5470.000
25.966	135.200	5380.000
26.119	135.500	5590.000
26.274	135.900	5440.000
26.427	136.500	5690.000
26.581	136.800	5590.000
26.735	137.200	5380.000
26.889	137.800	5760.000
27.044	138.500	5830.000
27.198	138.800	5700.000
27.352	139.100	5680.000
27.505	139.700	5610.000
27.659	140.000	5730.000
27.814	140.400	5600.000
27.968	141.000	5650.000
28.122	141.400	5630.000
28.275	142.000	5920.000
28.430	142.300	5750.000
28.584	142.600	5700.000
28.738	143.300	5630.000
28.892	143.600	5580.000
29.046	144.300	5880.000
29.199	144.600	5870.000
29.353	145.200	5880.000
29.507	145.600	5760.000
29.660	145.900	5720.000
29.818	146.600	5810.000
29.970	146.900	5730.000
30.123	147.200	5670.000
30.278	147.800	6080.000
30.433	148.100	5880.000
30.586	148.400	5960.000
30.741	149.100	6100.000
30.896	149.700	6080.000
31.051	150.000	5970.000
31.205	150.400	6220.000
31.359	151.000	6160.000
31.514	151.300	6390.000
31.668	151.600	6370.000
31.822	152.300	6400.000
31.975	152.600	6650.000
32.128	153.200	6780.000
32.282	153.600	7070.000
32.435	153.900	7170.000
32.589	154.600	7340.000
32.744	154.900	7810.000
32.898	155.200	7740.000
33.052	155.800	7930.000
33.205	156.500	7890.000
33.359	156.800	8340.000
33.513	157.100	8120.000
33.667	157.400	8830.000
33.819	158.100	8720.000
33.972	158.400	8960.000
34.126	159.000	9080.000
34.280	159.400	8920.000
34.434	160.000	9080.000
34.588	160.400	9310.000
34.742	161.000	9160.000
34.896	161.300	9200.000
35.051	161.600	9110.000
35.205	162.300	8820.000
35.358	162.600	8950.000
35.513	163.000	8620.000
35.668	163.600	8420.000
35.821	163.900	8680.000
35.975	164.600	8400.000
36.129	164.900	8320.000
36.284	165.200	8320.000
36.439	165.900	8160.000
36.594	166.200	8110.000
36.746	166.900	8200.000
36.898	166.900	8200.000
37.051	167.800	7750.000
37.206	168.200	8050.000
37.358	168.500	7960.000
37.513	169.100	7710.000
37.667	169.400	7870.000
37.821	169.800	8020.000
37.975	170.500	7680.000
38.128	170.800	7770.000
38.283	171.400	7780.000
38.437	171.700	7750.000
38.589	172.400	7400.000
38.745	172.700	7780.000
38.900	173.000	7630.000
39.053	173.400	7560.000
39.207	174.000	7840.000
39.361	174.400	7360.000
39.524	175.000	7660.000
39.677	175.300	7960.000
39.831	175.900	8160.000
39.985	176.300	7730.000
40.137	176.900	7610.000
40.291	177.300	7660.000
40.443	177.600	7610.000
40.599	178.200	7570.000
40.752	178.500	8050.000
40.906	179.200	8100.000
41.060	179.500	7940.000
41.213	179.800	8030.000
41.367	180.500	7950.000
41.520	180.800	8140.000
41.674	181.100	7830.000
41.827	181.800	8300.000
41.981	182.100	8300.000
42.134	182.400	8250.000
42.288	183.100	8410.000
42.440	183.700	8380.000
42.594	184.000	8410.000
42.747	184.300	8500.000
42.900	185.000	8370.000
43.055	185.300	8930.000
43.208	185.600	9080.000
43.361	186.300	8780.000
43.513	186.600	8870.000
43.667	187.300	9190.000
43.820	187.600	9000.000
43.973	187.900	9030.000
44.127	188.600	9080.000
44.281	188.900	9090.000
44.435	189.500	9120.000
44.587	189.900	9410.000
44.742	190.200	9400.000
44.895	190.800	9310.000
45.050	191.200	9410.000
45.204	191.500	9410.000
45.357	192.200	9500.000
45.510	192.500	9570.000
45.663	193.100	9460.000
45.816	193.500	9690.000
45.968	193.800	9600.000
46.122	194.400	9970.000
46.276	194.700	9870.000
46.429	195.400	10130.000
46.581	195.700	10440.000
46.734	196.100	10170.000
46.888	196.700	10530.000
47.042	196.700	10490.000
47.194	197.700	10850.000
47.348	198.000	10830.000
47.503	198.700	10810.000
47.657	199.000	11120.000
47.811	199.300	11210.000
47.965	200.000	11240.000
48.119	200.300	11980.000
48.272	200.600	11470.000
48.424	201.300	12230.000
48.578	201.600	12000.000
48.732	202.300	12070.000
48.885	202.600	12330.000
49.040	203.200	12120.000
49.193	203.600	11730.000
49.346	203.900	12490.000
49.499	204.500	12440.000
49.653	204.900	12390.000
49.809	205.200	12240.000
49.962	205.900	12440.000
50.115	206.200	12600.000
50.267	206.800	12120.000
50.420	207.200	10820.000
50.575	207.500	10460.000
50.728	207.800	10470.000
50.882	208.500	9980.000
51.037	209.100	10380.000
51.224	209.400	10050.000
51.377	209.700	10080.000
51.530	210.400	9730.000
51.684	210.700	9620.000
51.836	211.300	9540.000
51.989	211.700	9620.000
52.142	212.300	9950.000
52.296	212.600	9780.000
52.450	213.300	9540.000
52.605	213.600	9750.000
52.758	213.900	9790.000
52.911	214.600	9460.000
53.064	214.900	9700.000
53.218	215.600	9330.000
53.371	215.900	9490.000
53.525	216.300	9500.000
53.678	216.900	9630.000
53.830	217.200	9770.000
53.984	217.600	9440.000
54.137	218.200	9640.000
54.290	218.500	9420.000
54.443	219.200	9640.000
54.600	219.500	9260.000
54.753	219.900	9480.000
54.906	220.500	9350.000
55.061	220.800	9380.000
55.215	221.500	9660.000
55.367	221.800	9540.000
55.521	222.100	9480.000
55.675	222.800	9370.000
55.829	223.100	9320.000
55.983	223.800	9620.000
56.136	224.100	9480.000
56.289	224.400	9500.000
56.442	225.100	9420.000
56.595	225.400	9380.000
56.749	226.000	9230.000
56.903	226.400	9480.000
57.056	226.700	9270.000
57.208	227.400	9570.000
57.361	227.700	9380.000
57.515	228.000	9400.000
57.667	228.700	9490.000
57.821	229.000	9380.000
57.975	229.600	9410.000
58.129	230.000	9480.000
58.282	230.300	9500.000
58.436	230.900	9210.000
58.589	231.200	9040.000
58.742	231.900	9180.000
58.895	232.200	9240.000
59.050	232.900	9240.000
59.205	233.200	9380.000
59.358	233.500	9370.000
59.512	234.200	9130.000
59.665	234.500	9400.000
59.819	234.800	9070.000
59.972	235.200	9190.000
60.127	235.800	9280.000
60.281	236.500	9200.000
60.434	236.800	9330.000
60.588	237.400	9340.000
60.742	237.700	9560.000
60.896	238.100	9220.000
61.049	238.700	8840.000
61.204	239.100	9130.000
61.358	239.400	9060.000
61.512	240.000	9390.000
61.667	240.400	9430.000
61.821	241.000	8970.000
61.975	241.300	9120.000
62.128	241.700	9180.000
62.282	242.300	8980.000
62.435	242.600	9200.000
62.587	243.300	9060.000
62.742	243.600	9290.000
62.896	243.900	9220.000
63.050	244.300	8580.000
63.203	244.900	8910.000
63.356	245.600	9020.000
63.511	245.900	9070.000
63.666	246.200	8870.000
63.819	246.900	9060.000
63.972	247.200	8970.000
64.125	247.800	8840.000
64.279	248.200	9030.000
64.433	248.500	9110.000
64.586	249.200	8900.000
64.741	249.500	9000.000
64.893	250.100	8700.000
65.049	250.400	8960.000
65.202	250.800	8770.000
65.356	251.100	8820.000
65.509	251.800	8580.000
65.664	252.400	8850.000
65.818	252.700	8860.000
65.971	253.100	8660.000
66.125	253.700	8640.000
66.279	254.100	8730.000
66.434	254.700	8600.000
66.587	255.000	8660.000
66.740	255.400	8460.000
66.895	256.000	8420.000
67.048	256.300	8710.000
67.201	257.000	8790.000
67.356	257.300	8380.000
67.509	257.700	8460.000
67.663	258.300	8520.000
67.818	258.700	8650.000
67.971	259.000	8140.000
68.124	259.700	8340.000
68.277	260.000	8370.000
68.431	260.600	8060.000
68.586	261.000	8430.000
68.739	261.300	8010.000
68.892	261.900	8250.000
69.047	262.300	8550.000
69.201	262.900	8590.000
69.355	263.200	8270.000
69.508	263.900	8180.000
69.661	264.200	8190.000
69.815	264.600	8080.000
69.970	265.200	8130.000
70.124	265.600	8130.000
70.277	265.900	8170.000
70.430	266.500	8140.000
70.584	266.800	8180.000
70.739	267.500	8110.000
70.893	267.800	8030.000
71.047	268.500	7990.000
71.200	268.800	8250.000
71.354	269.100	7790.000
71.508	269.800	8060.000
71.663	270.100	7960.000
71.817	270.400	7920.000
71.972	271.100	7950.000
72.125	271.400	7910.000
72.280	272.100	7890.000
72.434	272.400	8070.000
72.587	272.700	8080.000
72.742	273.300	7960.000
72.896	273.700	7930.000
73.049	274.300	7710.000
73.204	274.700	7750.000
73.358	275.300	7530.000
73.512	275.600	7620.000
73.666	276.000	7640.000
73.820	276.600	7650.000
73.974	276.900	7680.000
74.126	277.200	7310.000
74.281	277.900	7720.000
74.434	278.200	7700.000
74.588	278.900	7780.000
74.742	279.200	7770.000
74.897	279.800	7710.000
75.052	280.200	7680.000
75.205	280.500	7510.000
75.358	281.100	7640.000
75.513	281.500	7450.000
75.666	281.800	7510.000
75.820	282.500	7710.000
75.973	282.800	7580.000
76.127	283.500	7430.000
76.282	283.800	7400.000
76.434	284.100	7420.000
76.589	284.800	7450.000
76.742	285.100	7450.000
76.895	285.800	7270.000
77.049	286.100	7090.000
77.204	286.700	7560.000
77.359	287.100	7300.000
77.513	287.400	7340.000
77.667	288.000	7440.000
77.820	288.400	6950.000
77.972	288.700	7190.000
78.126	289.400	7390.000
78.281	289.700	7140.000
78.434	290.300	6990.000
78.588	290.600	6920.000
78.743	291.300	7250.000
78.898	291.700	7010.000
79.051	292.000	6940.000
79.205	292.600	7240.000
79.358	293.000	6980.000
79.511	293.300	7230.000
79.665	293.900	6960.000
79.818	294.300	7210.000
79.973	294.900	7340.000
80.126	295.300	7010.000
80.280	295.600	7210.000
80.434	296.300	6840.000
80.587	296.600	7120.000
80.740	296.900	6740.000
80.894	297.500	6840.000
81.048	298.200	7070.000
81.202	298.500	7400.000
81.355	298.900	7260.000
81.508	299.500	7030.000
81.662	299.800	6760.000
81.814	300.100	6720.000
81.969	300.800	7030.000
82.121	301.100	6760.000
82.275	301.800	6850.000
82.427	302.100	7130.000
82.581	302.400	7050.000
82.734	302.700	7020.000
82.886	303.400	6870.000
83.040	304.100	6690.000
83.192	304.400	7160.000
83.345	304.700	7030.000
83.500	305.000	6950.000
83.654	305.700	6730.000
83.808	306.000	6930.000
83.960	306.700	6740.000
84.114	307.000	6750.000
84.267	307.700	6860.000
84.419	308.000	6860.000
84.572	308.300	7050.000
84.725	309.000	6770.000
84.880	309.300	6540.000
85.034	310.000	6450.000
85.187	310.300	6640.000
85.340	310.900	6890.000
85.495	311.300	6540.000
85.647	311.600	7270.000
85.800	312.200	6850.000
85.954	312.600	6370.000
86.107	312.900	6330.000
86.260	313.600	6520.000
86.414	313.900	6230.000
86.566	314.600	6230.000
86.720	314.900	6170.000
86.874	315.200	6110.000
87.029	315.900	5970.000
87.182	316.200	6300.000
87.335	316.800	6160.000
87.489	317.100	6050.000
87.643	317.500	6140.000
87.796	318.100	6010.000
87.949	318.400	6290.000
88.102	319.100	6230.000
88.256	319.400	5880.000
88.409	319.800	5910.000
88.562	320.400	6000.000
88.715	320.700	6050.000
88.870	321.400	6020.000
89.023	321.700	6150.000
89.176	322.000	6170.000
89.330	322.700	5930.000
89.483	323.000	5870.000
89.637	323.400	6190.000
89.792	324.000	6210.000
89.945	324.300	6060.000
90.097	325.000	5890.000
90.250	325.300	5850.000
90.404	325.700	6060.000
90.557	326.300	5980.000
90.711	326.600	6230.000
90.865	327.300	5990.000
91.019	327.600	5830.000
91.172	327.900	6110.000
91.326	328.600	5900.000
91.481	328.900	5970.000
91.633	329.600	5980.000
91.787	329.900	6110.000
91.940	330.600	6070.000
92.093	330.900	6100.000
92.247	331.200	6000.000
92.402	331.900	6190.000
92.556	332.200	6360.000
92.708	332.500	6040.000
92.862	333.200	6230.000
93.015	333.500	6270.000
93.169	334.100	5990.000
93.321	334.400	6040.000
93.476	334.800	5820.000
93.628	335.100	5930.000
93.782	335.700	6130.000
93.938	336.400	5950.000
94.091	336.800	6120.000
94.244	337.100	5990.000
94.397	337.700	6130.000
94.550	338.000	5940.000
94.704	338.700	5910.000
94.857	339.000	6060.000
95.010	339.400	6090.000
95.164	340.000	6080.000
95.318	340.300	5780.000
95.472	341.000	6040.000
95.624	341.300	6080.000
95.779	341.600	5930.000
95.932	342.300	6020.000
96.085	342.600	6020.000
96.238	342.600	6010.000
96.392	343.600	6010.000
96.544	343.900	5910.000
96.697	344.600	5930.000
96.852	344.900	6070.000
97.005	345.500	5900.000
97.159	345.900	6150.000
97.313	346.200	6250.000
97.465	346.900	5920.000
97.620	347.200	5990.000
97.773	347.500	5920.000
97.927	347.900	6170.000
98.082	348.500	6100.000
98.234	349.100	6030.000
98.389	349.500	6090.000
98.542	350.100	6130.000
98.696	350.500	6010.000
98.849	350.800	5990.000
99.002	351.400	5940.000
99.156	351.800	6140.000
99.309	352.100	5900.000
99.463	352.700	6040.000
99.617	353.100	5690.000
99.771	353.700	5840.000
99.925	354.100	5940.000
100.078	354.400	5790.000
100.231	355.000	6270.000
100.385	355.400	6260.000
100.538	356.000	6200.000
100.691	356.300	6120.000
100.846	357.000	6240.000
100.999	357.300	6090.000
101.153	357.600	6230.000
101.307	358.300	6080.000
101.461	358.600	6090.000
101.615	359.000	5830.000
101.769	359.600	6090.000
101.923	359.900	6090.000
102.077	360.600	6000.000
102.230	360.900	5990.000
102.383	361.200	6240.000
102.537	361.900	6110.000
102.691	362.200	5950.000
102.845	362.900	6210.000
102.999	363.200	6120.000
103.152	363.500	6010.000
103.305	363.800	6140.000
103.459	364.500	6150.000
103.613	365.200	5900.000
103.766	365.500	6060.000
103.920	365.800	6080.000
104.074	366.500	5960.000
104.228	366.800	6030.000
104.381	367.400	5860.000
104.535	367.800	6180.000
104.690	368.100	6240.000
104.843	368.400	5940.000
104.997	369.100	5970.000
105.152	369.700	5940.000
105.305	370.100	6100.000
105.459	370.400	6040.000
105.614	371.000	6190.000
105.768	371.400	6150.000
105.921	371.700	5940.000
106.074	372.300	5860.000
106.228	372.700	6070.000
106.381	373.300	5840.000
106.534	373.700	6470.000
106.689	374.000	6010.000
106.842	374.600	6130.000
106.996	375.000	6030.000
107.150	375.600	6050.000
107.304	376.000	6040.000
107.458	376.600	5780.000
107.610	376.900	6160.000
107.765	377.300	5830.000
107.919	377.900	5880.000
108.073	378.200	6130.000
108.227	378.600	6030.000
108.381	379.200	6340.000
108.535	379.600	5980.000
108.688	379.900	6030.000
108.842	380.500	5880.000
108.995	380.900	6100.000
109.149	381.500	6220.000
109.301	381.800	6050.000
109.456	382.500	5990.000
109.610	382.800	5920.000
109.763	383.100	6020.000
109.918	383.800	5760.000
110.072	384.100	6010.000
110.227	384.800	6110.000
110.380	385.100	6000.000
110.536	385.400	6230.000
110.689	386.100	5950.000
110.842	386.400	5940.000
110.995	387.100	6060.000
111.150	387.400	6020.000
111.304	388.100	6010.000
111.460	388.400	6030.000
111.614	388.700	6280.000
111.768	389.300	6120.000
111.921	389.700	6290.000
112.074	390.000	6150.000
112.229	390.700	5860.000
112.381	391.000	5940.000
112.536	391.300	6140.000
112.690	391.900	5860.000
112.844	392.600	6020.000
112.998	392.900	5950.000
113.151	393.300	6240.000
113.304	393.900	6050.000
113.457	394.300	6280.000
113.611	394.600	6390.000
113.765	395.200	6300.000
113.920	395.600	6110.000
114.074	396.200	6160.000
114.227	396.500	6200.000
114.381	396.900	6220.000
114.535	397.500	6270.000
114.689	397.800	5850.000
114.842	398.500	6200.000
114.995	398.800	6320.000
115.151	399.100	5950.000
115.304	399.800	6090.000
115.458	400.100	6130.000
115.613	400.800	6130.000
115.766	401.100	6120.000
115.919	401.400	6290.000
116.074	402.100	6170.000
116.227	402.400	5980.000
116.380	403.100	6080.000
116.534	403.400	5990.000
116.687	403.700	6410.000
116.840	404.400	6390.000
116.993	404.700	6200.000
117.147	405.400	6040.000
117.302	405.700	6170.000
117.456	406.000	6080.000
117.610	406.700	6110.000
117.764	407.000	6270.000
117.917	407.600	6040.000
118.071	407.900	6110.000
118.226	408.300	6400.000
118.380	408.900	6150.000
118.533	409.300	6370.000
118.687	409.600	6330.000
118.841	410.300	6390.000
118.995	410.600	6090.000
119.148	411.200	6350.000
119.302	411.500	6170.000
119.454	412.200	6520.000
119.608	412.500	6350.000
119.764	412.800	6580.000
119.918	413.500	6450.000
120.072	413.800	6380.000
120.225	414.200	6510.000
120.378	414.800	6400.000
120.532	415.100	6420.000
120.685	415.800	6230.000
120.838	416.100	6430.000
120.990	416.800	6390.000
121.144	417.100	6710.000
121.296	417.400	6470.000
121.449	418.100	6760.000
121.603	418.400	6670.000
121.756	419.000	6450.000
121.910	419.400	6440.000
122.063	419.700	6550.000
122.217	420.300	6560.000
122.370	420.700	7060.000
122.525	421.000	6520.000
122.679	421.700	6790.000
122.834	422.000	6450.000
122.986	422.600	6740.000
123.139	422.900	6550.000
123.293	423.600	6960.000
123.448	423.900	6490.000
123.601	424.300	6690.000
123.754	424.600	6670.000
123.909	425.200	6460.000
124.064	425.600	6500.000
124.218	426.200	6490.000
124.372	426.600	6720.000
124.527	427.200	6710.000
124.679	427.500	6670.000
124.835	427.800	6520.000
124.988	428.500	7140.000
125.142	428.800	6970.000
125.297	429.500	6890.000
125.451	429.800	6480.000
125.604	430.400	7000.000
125.757	430.800	7110.000
125.912	431.100	6490.000
126.065	431.800	7020.000
126.218	432.100	6740.000
126.370	432.400	7150.000
