Wed, Oct 25, 2017	11:26 AM
 Notes: GUA top chamber_1E-09 above base_ 60 sec_102517
 waiting time: 50.000
 time(s)	 temp (K)	 MS1=1.971	 MS2=27.883	 MS3=125.586	 MS4=29.015	 MS5=111.548	 MS6=84.866	 MS7=56.522	 MS8=125.586
0.000	103.100	3628.919	7711.090	8.654
0.763	103.100	3652.228	7740.995	8.675
1.407	103.100	3661.202	7730.004	8.976
2.050	103.100	3699.426	7742.256	8.960
2.733	103.100	3668.335	7720.120	8.988
3.386	103.100	3650.955	7655.050	8.833
4.062	103.100	3737.090	7729.660	8.974
4.749	103.100	3637.078	7699.767	9.309
5.433	103.100	3649.717	7650.923	9.033
6.092	103.100	3692.456	7699.589	8.746
6.771	103.100	3628.531	7719.216	8.891
7.412	103.100	3663.363	7736.869	8.734
8.063	103.100	3658.857	8185.905	9.090
8.767	103.200	3694.029	10358.157	8.803
9.436	103.300	3806.368	16585.861	9.175
10.117	103.600	4004.892	24903.462	8.854
10.798	104.100	4071.932	23628.238	9.370
11.453	104.800	4040.654	20387.869	9.132
12.105	105.700	4065.600	21279.522	9.578
12.790	107.400	4066.517	22786.550	9.343
13.441	109.200	4115.436	22797.427	9.518
14.126	111.500	4137.228	20661.193	9.153
14.811	114.200	4044.100	18381.827	8.969
15.495	117.100	4068.402	16528.712	9.249
16.151	120.200	4039.892	15130.912	9.094
16.803	123.300	3951.591	13960.789	8.928
17.455	126.400	3938.614	13403.442	9.468
18.108	129.400	3975.675	12885.782	8.869
18.761	132.200	3889.291	12436.555	9.052
19.446	134.900	3872.236	11972.235	9.117
20.100	137.500	3885.120	11820.658	9.334
20.765	140.000	3889.365	11760.211	9.488
21.437	142.400	3848.226	11513.595	9.467
22.107	144.800	3886.828	11357.714	9.532
22.790	147.500	3829.603	11119.619	9.705
23.454	149.900	3821.427	10789.655	9.090
24.106	152.200	3836.444	10789.948	9.439
24.787	154.600	3823.463	10657.451	9.357
25.454	156.900	3790.842	10379.733	9.424
26.152	159.200	3847.403	10261.348	9.632
26.803	161.500	3794.429	10095.748	9.407
27.475	163.800	3784.348	9927.487	9.257
28.127	166.000	3837.488	9926.557	9.537
28.808	168.200	3766.442	9788.150	8.999
29.469	170.400	3777.106	9761.518	9.732
30.136	172.600	3809.784	9703.478	9.706
30.819	175.000	3742.902	9558.194	9.268
31.476	177.100	3776.943	9490.449	10.338
32.128	179.200	3783.491	9497.301	9.262
32.827	181.300	3740.942	9362.180	9.728
33.479	183.400	3750.214	9304.127	10.170
34.151	185.400	3744.425	9279.482	9.858
34.803	187.500	3717.436	9185.691	9.537
35.454	189.500	3708.328	9191.397	9.727
36.139	191.500	3775.520	9244.342	9.356
36.825	193.600	3720.887	9097.631	10.020
37.528	195.900	3746.752	9142.527	9.556
38.180	197.900	3753.140	9125.269	9.878
38.834	199.600	3744.390	9113.641	9.685
39.488	201.700	3743.701	9041.565	10.014
40.140	203.700	3762.146	8966.000	9.569
40.791	205.700	3710.520	8946.831	10.156
41.475	207.700	3732.042	8885.136	9.871
42.140	210.000	3704.134	8868.184	9.862
42.792	211.700	3671.263	8785.754	9.406
43.465	214.000	3725.666	8821.645	10.170
44.123	216.000	3734.913	8824.536	9.187
44.815	218.000	3706.197	8808.998	9.790
45.503	220.000	3769.907	8833.413	10.198
46.169	222.000	3732.857	8786.900	10.391
46.861	224.000	3760.388	8808.030	9.516
47.543	226.300	3764.293	8731.063	9.750
48.195	228.300	3753.608	8699.248	9.771
48.848	230.200	3750.257	8677.022	10.077
49.500	231.900	3805.774	8690.982	10.286
50.153	233.900	3823.939	8753.250	10.472
50.804	235.900	3826.398	8686.715	10.087
51.455	237.900	3827.910	8674.552	10.124
52.107	239.900	3900.079	8696.675	9.860
52.757	241.800	3890.977	8702.877	9.988
53.408	243.800	3916.962	8683.327	10.669
54.060	245.800	3986.720	8665.127	9.683
54.712	247.800	3992.358	8657.510	10.805
55.363	249.700	4031.106	8638.520	10.538
56.014	251.700	4113.109	8675.214	10.572
56.698	253.700	4146.649	8726.988	10.493
57.358	255.700	4128.934	8662.312	10.546
58.010	257.700	4226.397	8656.173	10.002
58.678	259.700	4256.640	8699.018	10.572
59.368	261.600	4218.707	8653.103	10.668
60.020	263.600	4251.005	8677.723	10.253
60.673	265.600	4323.219	8706.915	10.123
61.325	267.600	4284.990	8750.817	10.409
61.979	269.500	4296.236	8764.127	10.790
62.631	271.500	4346.522	8818.932	10.512
63.316	273.500	4321.592	8784.009	10.278
64.002	275.500	4347.934	8787.779	10.482
64.679	277.400	4405.990	8864.669	10.846
65.333	279.400	4366.577	8870.782	10.242
66.020	281.800	4424.999	8810.577	10.456
66.672	283.800	4403.107	8783.270	10.175
67.320	285.400	4316.775	8795.866	11.105
67.968	287.400	4372.485	8836.139	10.470
68.620	289.400	4407.710	8841.132	10.907
69.305	291.400	4335.462	8736.043	11.149
69.979	293.700	4358.317	8765.095	10.858
70.655	295.700	4361.536	8813.761	11.121
71.308	297.600	4322.879	8882.194	11.149
71.962	299.600	4360.344	8923.766	10.561
72.649	301.600	4407.304	8967.796	11.470
73.302	303.500	4325.555	8953.314	11.314
73.957	305.500	4319.922	8949.570	11.114
74.610	307.500	4372.078	9022.690	11.237
75.295	309.500	4322.230	8989.333	10.700
75.962	311.400	4297.688	9033.490	11.450
76.656	313.400	4336.184	9064.032	10.613
77.308	315.400	4279.169	8988.849	11.199
77.978	317.400	4325.663	9007.572	10.673
78.668	319.700	4291.242	8981.576	11.274
79.331	321.700	4245.839	8962.255	10.993
79.984	323.700	4254.032	8891.390	12.033
80.638	325.600	4238.521	8944.017	11.458
81.291	327.300	4193.738	8903.578	10.953
81.975	329.600	4225.061	8928.656	11.238
82.628	331.500	4213.766	8920.454	11.572
83.281	333.500	4184.550	9016.513	11.283
83.934	335.200	4145.508	8922.148	11.954
84.619	337.500	4216.920	8983.844	11.293
85.308	339.500	4104.594	8956.116	11.510
85.963	341.400	4116.783	8988.556	11.469
86.617	343.400	4172.282	8975.552	11.832
87.299	345.400	4099.025	8975.832	11.784
87.952	347.400	4081.594	9009.100	11.963
88.635	349.400	4106.626	9025.695	11.436
89.288	351.400	4043.974	9000.375	11.503
89.956	353.300	4045.735	8991.371	11.073
90.623	355.300	4030.415	8978.622	11.463
91.307	357.300	3994.186	9016.678	11.264
91.959	359.300	3997.311	9093.097	11.548
92.611	361.300	3979.142	9056.021	11.517
93.266	363.200	3894.225	8993.065	11.488
93.918	365.200	3899.503	8995.345	11.870
94.571	367.200	3923.094	9041.068	11.390
95.237	369.200	3874.400	9068.834	12.246
95.890	371.100	3850.253	9051.576	11.696
96.546	373.100	3843.966	9057.346	11.962
97.236	375.100	3838.460	9099.299	11.785
97.889	377.100	3774.253	9047.806	12.127
98.543	379.100	3854.221	9093.759	11.990
99.196	381.000	3845.781	9173.578	11.907
99.849	383.000	3761.462	9062.784	12.434
100.503	385.000	3837.091	9182.889	12.479
101.183	387.000	3805.613	9194.390	12.275
101.836	388.900	3739.271	9170.802	12.354
102.489	390.900	3797.828	9207.355	12.262
103.181	392.900	3834.903	9358.295	12.270
103.836	394.900	3746.207	9316.583	12.650
104.489	396.800	3810.888	9343.814	12.111
105.140	398.800	3777.842	9470.541	12.434
105.792	400.800	3758.460	9449.947	12.617
106.444	402.800	3735.337	9437.236	12.432
107.098	404.800	3799.953	9444.037	12.855
107.775	406.700	3718.797	9461.155	12.097
108.428	408.700	3735.248	9449.310	12.442
109.081	410.700	3758.360	9444.317	13.001
109.734	412.700	3727.496	9529.690	13.599
110.387	414.600	3713.948	9455.436	12.964
111.042	416.600	3769.413	9564.791	13.251
111.697	418.600	3780.675	9634.803	13.153
112.350	420.600	3694.058	9586.150	13.002
113.035	422.500	3756.725	9617.686	13.353
113.689	424.500	3742.133	9607.178	12.864
114.342	426.500	3703.237	9636.064	12.763
114.994	428.500	3718.112	9561.925	13.243
115.682	430.500	3733.727	9599.192	12.776
116.363	432.400	3680.324	9578.750	13.253
117.016	434.400	3771.620	9762.257	12.963
117.669	436.400	3752.159	9743.802	13.776
118.321	438.400	3684.965	9741.904	14.039
118.997	440.400	3761.729	9809.140	13.811
119.651	442.300	3753.452	9811.382	13.903
120.331	444.300	3665.031	9781.986	13.567
120.986	446.300	3710.339	9754.717	13.478
121.670	448.600	3714.896	9816.170	14.150
122.322	450.300	3712.209	9868.492	14.149
122.972	452.300	3730.712	9833.467	13.869
123.625	454.200	3728.264	9846.623	13.858
124.279	456.200	3709.590	9823.545	13.749
124.956	458.200	3699.588	9870.428	13.736
125.611	460.200	3732.619	9891.608	13.944
126.312	462.500	3667.040	9836.472	14.094
126.993	464.500	3674.767	9859.844	13.632
127.643	466.400	3715.568	9841.057	14.452
128.291	468.400	3689.212	9803.141	14.026
128.945	470.400	3682.376	9788.953	13.774
129.600	472.400	3739.179	9802.046	13.530
130.253	474.400	3664.718	9723.220	15.089
130.907	476.000	3677.048	9588.010	14.158
131.561	478.000	3720.497	9598.466	14.156
132.213	479.900	3713.947	9606.809	14.998
132.868	481.900	3681.259	9527.715	14.448
133.522	483.900	3710.736	9508.560	14.378
134.174	485.900	3711.171	9495.276	14.677
134.827	487.900	3643.697	9363.759	14.439
135.481	489.900	3686.862	9366.536	14.663
136.135	491.800	3692.596	9373.209	14.508
136.788	493.800	3664.618	9332.950	14.656
137.439	495.800	3642.163	9316.316	15.498
138.093	497.800	3708.307	9340.299	14.716
138.782	499.700	3671.210	9309.132	14.282
139.435	501.700	3661.630	9284.347	15.258
140.088	503.700	3691.547	9320.379	15.022
140.766	505.700	3669.777	9295.135	14.991
141.421	507.700	3615.033	9193.498	15.548
142.074	509.600	3667.772	9156.117	15.031
142.728	511.600	3640.328	9190.531	15.042
143.381	513.600	3647.724	9198.898	15.605
144.034	515.500	3701.739	9249.781	15.281
144.715	517.500	3658.733	9182.176	15.820
145.369	519.500	3620.614	9177.234	15.108
146.021	521.500	3694.728	9174.355	15.570
146.672	523.500	3687.599	9181.220	15.173
147.325	525.500	3602.857	9109.731	15.925
147.979	527.500	3643.860	9157.199	15.694
148.633	529.400	3667.611	9128.313	15.718
149.286	531.400	3630.241	9097.771	15.639
149.935	533.000	3618.096	9175.209	15.821
150.624	535.300	3716.324	9282.373	16.068
151.277	537.300	3658.127	9253.168	16.036
151.947	539.300	3640.835	9222.079	16.038
152.602	541.300	3707.421	9279.673	16.855
153.254	543.300	3639.418	9332.517	16.072
153.907	545.300	3662.968	9283.316	15.180
154.559	547.200	3693.527	9277.635	16.350
155.215	548.900	3681.524	9264.631	15.526
155.868	550.800	3643.048	9264.950	15.672
156.519	552.800	3728.738	9388.914	16.180
157.174	554.800	3714.888	9374.190	16.330
157.828	556.800	3656.190	9303.210	16.407
158.483	558.700	3665.685	9258.913	17.003
159.138	560.700	3718.607	9269.000	17.584
159.791	562.700	3657.902	9289.760	17.018
160.443	564.700	3635.233	9272.808	17.035
161.138	566.600	3712.715	9394.186	16.408
161.798	568.600	3714.884	9387.143	16.983
162.450	570.600	3933.502	9336.643	17.484
163.103	572.600	4792.861	9389.321	17.886
163.772	574.600	5741.183	9360.384	17.993
164.425	576.600	5896.024	9351.277	17.743
165.078	578.500	6806.882	9331.077	17.417
165.769	580.500	7537.404	9277.686	17.565
166.422	582.500	7770.654	9332.555	18.219
167.075	584.500	7870.910	9357.773	17.846
167.761	586.800	7827.932	9300.663	17.027
168.445	588.800	7767.131	9271.280	17.733
169.098	590.800	7908.604	9247.985	17.268
169.765	592.700	7719.880	9293.428	17.911
170.418	594.700	7884.138	9334.121	18.238
171.071	596.700	7966.709	9344.527	18.489
171.724	598.600	7891.231	9356.130	18.661
172.378	600.600	7900.362	9387.729	18.158
173.033	602.200	7976.396	9367.453	18.335
173.688	604.200	8047.614	9433.657	17.570
174.342	606.200	7879.996	9387.321	18.258
174.992	608.200	7973.679	9381.450	18.936
175.643	610.200	8098.447	9471.802	18.177
176.325	612.200	8012.119	9505.376	19.382
176.995	614.100	10312.589	9437.720	18.587
177.648	616.100	10439.807	9549.138	18.371
178.302	618.100	10439.807	9510.674	19.564
178.993	620.400	10439.807	9450.622	18.493
179.647	622.400	10439.807	9501.809	19.223
180.299	624.300	10439.807	9542.732	19.596
180.954	626.000	10439.807	9464.059	19.196
181.607	628.000	10439.807	9514.431	19.233
182.260	630.000	10439.807	9574.917	19.210
182.941	632.300	10439.807	9540.656	19.031
183.594	633.900	10439.807	9530.314	19.241
184.248	635.900	10439.807	9550.756	20.218
184.901	637.900	10439.807	9548.017	19.521
185.554	639.800	10439.807	9536.376	20.255
186.206	641.800	10439.807	9514.966	19.307
186.859	643.800	10439.807	9486.984	20.386
187.536	645.800	10439.807	9526.454	19.959
188.183	647.800	10439.807	9488.869	19.944
188.832	649.700	6160.827	9539.038	19.832
189.527	651.700	4175.259	9567.835	20.076
190.184	653.700	3842.902	9509.018	20.483
190.836	655.700	3763.333	9526.671	20.172
191.488	657.600	3777.780	9557.149	19.935
192.143	659.600	3815.877	9583.947	20.225
192.794	661.600	3712.738	9563.963	20.108
193.476	663.600	3777.889	9676.070	18.381
194.129	665.600	3791.447	9697.365	20.870
194.781	667.600	3752.670	9699.352	19.461
195.457	669.500	3726.528	9686.284	21.082
196.111	671.500	3779.486	9692.996	20.763
196.764	673.500	3689.798	9591.882	22.416
197.418	675.500	3719.878	9626.945	20.719
198.070	677.400	3756.295	9649.705	20.345
198.722	679.400	3719.867	9647.616	21.536
199.376	681.400	3698.154	9601.192	20.311
200.065	683.400	3754.790	9624.487	21.462
200.718	685.300	3716.652	9566.014	21.039
201.371	687.300	3679.085	9535.306	21.714
202.056	689.300	3744.083	9596.620	20.983
202.711	691.300	3739.546	9654.367	21.658
203.361	693.300	3702.427	9611.840	21.020
204.014	695.200	3738.137	9648.113	21.330
204.667	697.200	3753.203	9689.456	21.653
205.319	699.200	3689.310	9630.855	21.358
205.971	701.100	3710.703	9632.345	20.699
206.623	703.100	3721.017	9623.392	21.182
207.275	705.100	3675.451	9633.377	21.959
207.927	707.100	3665.759	9581.667	22.803
208.581	709.000	3727.273	9637.134	22.309
209.235	711.000	3665.690	9629.390	22.341
209.887	713.000	3665.615	9617.864	21.857
210.540	714.600	3702.486	9615.737	22.859
211.195	716.600	3711.447	9578.355	22.594
211.846	718.600	3685.778	9640.624	21.496
212.499	720.500	3710.059	9624.054	22.489
213.153	722.500	3726.661	9697.594	22.052
213.807	724.500	3694.639	9694.397	22.854
214.460	726.500	3705.871	9759.977	21.950
215.114	728.500	3723.819	9750.705	23.774
215.799	730.500	3674.805	9717.043	22.872
216.454	732.400	3673.857	9700.918	23.039
217.105	734.400	3695.311	9647.069	22.989
217.758	736.400	3679.087	9735.090	22.003
218.410	738.300	3676.205	9692.232	23.291
219.063	740.300	3744.507	9828.512	22.142
219.715	742.300	3730.120	9785.590	23.022
220.403	744.300	3721.064	9854.724	23.593
221.056	746.300	3735.118	9858.264	23.733
221.709	748.300	3749.030	9908.561	24.086
222.361	750.200	3704.974	9897.314	23.283
223.015	752.200	3767.830	9948.655	23.757
223.708	754.200	3737.120	9885.419	23.846
224.362	756.100	3701.394	9864.773	23.333
225.014	758.100	3728.626	9842.853	24.403
225.663	760.100	3774.196	9935.129	24.032
226.316	761.900	3693.109	9876.860	24.826
226.968	762.700	3696.041	9838.090	23.906
227.620	762.000	3761.429	9851.157	25.656
228.273	760.100	3690.211	9784.126	24.563
228.929	757.000	3713.189	9771.962	24.506
229.623	753.100	3726.878	9757.812	24.523
230.275	748.600	3692.968	9774.102	24.193
230.930	743.600	3712.374	9827.748	24.129
231.584	738.400	3759.014	9799.422	25.600
232.236	732.800	3696.994	9791.080	24.894
232.888	727.200	3722.264	9809.420	25.280
233.541	721.400	3750.669	9860.684	25.208
234.195	716.600	3756.042	9855.220	25.857
234.848	710.800	3697.306	9781.387	26.237
235.502	704.900	3777.688	9819.406	25.246
236.154	699.100	3792.104	9831.862	25.287
236.808	693.400	3717.206	9856.825	26.331
237.462	687.600	3743.491	9873.828	24.822
238.113	682.000	3786.582	9877.522	25.334
238.768	676.400	3742.987	9849.565	25.278
239.422	670.800	3694.937	9781.540	25.414
240.075	665.300	3777.674	9881.088	25.924
240.730	659.900	3751.027	9849.438	25.678
241.382	654.500	3708.124	9842.357	25.450
242.072	649.200	3758.241	9825.175	26.711
242.726	644.000	3712.128	9814.464	25.847
243.380	638.800	3696.376	9782.075	25.319
244.034	633.700	3749.529	9760.869	25.636
244.688	628.700	3798.521	9892.513	27.363
245.342	623.700	3699.955	9835.173	26.555
245.998	618.800	3725.281	9721.016	26.206
246.653	613.900	3738.265	9778.878	26.065
247.307	609.100	3695.596	9810.923	25.185
247.962	604.400	3690.632	9773.096	26.895
248.608	600.500	3727.450	9748.655	27.368
249.257	595.900	3691.410	9727.270	27.223
249.909	591.300	3667.034	9680.273	27.592
250.592	586.000	3739.155	9695.123	27.099
251.244	582.300	3673.869	9660.633	26.648
251.898	577.900	3689.215	9683.877	25.840
252.550	573.500	3736.654	9718.456	26.583
253.203	569.200	3734.919	9685.367	26.233
253.856	564.900	3661.579	9710.089	26.967
254.511	560.700	3741.002	9677.458	27.114
255.165	556.500	3736.375	9768.230	26.008
255.851	552.400	3696.962	9760.882	25.757
256.503	548.300	3719.564	9781.693	26.467
257.155	544.300	3760.957	9716.393	27.291
257.808	540.300	3662.167	9726.417	27.505
258.463	536.300	3683.538	9694.779	26.088
259.116	532.400	3756.935	9787.093	26.790
259.770	528.500	3671.710	9746.846	27.127
260.426	524.600	3693.244	9691.200	27.611
261.080	520.800	3737.464	9754.590	27.302
261.733	517.100	3699.706	9736.746	27.006
262.386	513.400	3704.475	9768.383	26.526
263.038	509.700	3780.122	9833.645	27.160
263.737	506.000	3706.103	9810.783	27.711
264.391	502.400	3701.325	9817.826	27.453
265.044	498.800	3713.142	9720.876	27.255
265.699	495.300	3777.990	9810.070	27.803
266.382	491.800	3670.703	9741.624	27.564
267.036	488.300	3746.844	9787.615	27.847
267.689	484.800	3730.078	9731.460	27.593
268.345	481.400	3684.093	9770.345	27.286
268.999	478.100	3739.410	9733.358	27.882
269.651	474.700	3749.906	9785.106	28.524
270.342	471.400	3683.986	9751.622	28.254
270.996	468.100	3694.670	9696.142	28.329
271.649	464.900	3727.937	9655.080	27.758
272.302	461.700	3632.038	9636.446	27.142
272.954	458.500	3683.707	9678.426	27.978
273.609	455.400	3724.087	9698.320	27.852
274.279	452.200	3651.117	9653.704	28.931
274.933	449.200	3645.808	9599.116	26.678
275.659	446.100	3745.898	9750.667	28.165
276.338	442.600	3667.276	9731.078	28.160
276.992	439.600	3696.516	9722.099	28.485
277.647	436.600	3711.010	9714.343	28.685
278.317	433.700	3669.476	9661.614	27.685
278.971	430.700	3681.158	9657.500	28.699
279.625	428.300	3718.295	9716.087	28.780
280.276	425.400	3658.768	9748.642	30.286
280.964	422.000	3709.907	9782.317	28.605
281.618	419.200	3749.548	9768.549	29.155
282.270	416.400	3653.259	9755.825	28.015
282.923	414.000	3658.476	9703.376	28.955
283.577	411.200	3724.583	9701.925	27.867
284.231	408.400	3730.903	9785.361	28.761
284.884	405.700	3657.644	9719.679	30.054
285.540	403.000	3726.993	9766.218	30.254
286.194	400.300	3724.434	9726.162	28.498
286.845	397.600	3657.597	9697.365	27.574
287.501	394.900	3726.918	9792.315	30.147
288.157	392.300	3732.760	9841.210	28.621
288.812	389.700	3664.978	9747.355	29.564
289.466	387.100	3656.456	9685.558	28.479
290.117	384.500	3719.345	9712.330	29.058
290.770	381.900	3659.303	9745.738	29.008
291.424	379.400	3693.983	9821.431	29.301
292.077	376.900	3723.740	9814.362	29.590
292.731	374.400	3731.202	9761.760	30.200
293.387	372.000	3670.739	9780.215	29.054
294.041	369.600	3717.857	9824.819	29.992
294.694	367.600	3729.396	9850.406	29.655
295.348	365.200	3703.982	9845.146	28.783
296.001	362.800	3727.580	9883.342	29.514
296.654	360.500	3742.733	9903.428	30.521
297.310	358.100	3676.508	9812.961	28.830
297.960	355.800	3639.128	9715.069	29.748
298.617	353.600	3712.381	9787.857	29.145
299.289	351.300	3678.844	9773.924	28.277
299.967	349.100	3666.820	9703.695	29.525
300.618	346.900	3692.300	9700.765	30.492
301.272	344.700	3669.408	9702.752	29.211
301.971	342.100	3695.335	9748.782	30.777
302.622	340.000	3736.738	9794.569	30.278
303.276	337.800	3646.702	9729.486	29.944
303.968	335.700	3696.428	9742.719	29.416
304.623	333.600	3723.345	9725.691	30.506
305.278	331.500	3676.060	9699.976	29.733
305.932	329.500	3638.021	9684.819	29.752
306.587	327.400	3716.167	9749.024	29.691
307.238	325.400	3667.185	9689.799	28.910
307.890	323.700	3642.343	9673.509	30.772
308.574	321.400	3687.445	9678.005	29.506
309.220	319.400	3680.080	9669.689	29.578
309.910	317.500	3661.138	9676.133	30.175
310.564	315.500	3690.917	9690.462	30.695
311.218	313.600	3712.350	9679.050	30.411
311.869	311.700	3649.925	9703.695	28.946
312.522	309.800	3723.932	9746.515	28.943
313.174	308.300	3701.911	9688.908	31.051
313.828	306.400	3647.935	9703.313	31.935
314.482	304.500	3676.670	9701.262	30.462
315.169	302.400	3733.015	9718.329	30.882
315.823	300.600	3666.137	9706.471	30.673
316.478	298.800	3695.907	9753.482	31.402
317.134	297.300	3705.368	9726.506	30.104
317.787	295.500	3658.188	9725.653	29.834
318.442	293.800	3673.887	9642.700	30.370
319.098	292.100	3675.940	9678.617	31.498
319.751	290.300	3682.205	9675.216	30.577
320.405	288.600	3642.676	9630.588	31.539
