Thu, Sep 28, 2017	11:17 AM
 Notes: furfural_6.4E-10_30s_92817
 waiting time: 50.000
 time(s)	 temp (K)	 MS1=1.879	 MS2=27.844	 MS3=97.084	 MS4=40.816	 MS5=77.304	 MS6=91.453	 MS7=78.423	 MS8=97.084
0.000	100.500	2637.640	7232.556	207.844
0.359	100.500	2540.525	7196.296	212.786
0.720	100.500	2487.057	7155.768	203.705
1.076	100.500	2468.806	7235.779	206.112
1.441	100.500	2543.021	7216.317	210.341
1.806	100.500	2522.274	7146.764	202.329
2.173	100.500	2492.534	7072.013	203.170
2.537	100.500	2479.403	7227.411	211.436
2.901	100.500	2551.886	7238.886	209.373
3.281	100.500	2550.421	7128.270	207.628
3.646	100.500	2472.143	7139.962	205.488
4.010	100.500	2511.027	7202.320	208.698
4.373	100.500	2504.150	7201.441	205.806
4.750	100.500	2532.399	7140.752	203.628
5.137	100.500	2482.141	7148.024	206.494
5.505	100.500	2503.895	7250.591	207.246
5.884	100.500	2528.438	7238.899	203.934
6.276	100.600	2534.921	7159.207	203.743
6.638	100.600	2493.693	7143.618	203.896
7.002	100.600	2509.690	7224.532	215.843
7.394	100.600	2534.399	7218.865	207.322
7.760	100.600	2526.910	7143.350	207.819
8.136	100.600	2510.429	7102.097	204.915
8.501	100.600	2508.263	7209.911	207.360
8.862	100.600	2543.034	7182.222	202.419
9.226	100.600	2500.367	7123.965	206.494
9.591	100.700	2489.808	7210.879	204.354
9.955	100.700	2527.572	7219.476	206.341
10.319	100.700	2520.898	7144.726	203.756
10.684	100.700	2502.774	7112.783	205.819
11.050	100.700	2503.029	7248.974	207.602
11.409	100.700	2573.792	7235.053	203.017
11.775	100.700	2534.271	7192.169	203.667
12.140	100.700	2503.296	7221.170	211.321
12.503	100.800	2514.963	7334.473	204.596
12.881	100.800	2555.134	7355.922	204.240
13.246	100.900	2546.753	7366.518	209.194
13.609	101.000	2547.797	7623.744	214.798
13.968	101.100	2567.628	7920.681	217.970
14.332	101.300	2558.738	8255.752	219.575
14.695	101.600	2562.877	8986.544	228.719
15.056	101.900	2542.193	9881.789	245.722
15.418	102.300	2600.934	10101.658	245.468
15.798	102.900	2611.951	9694.932	236.539
16.176	103.400	2588.681	9620.399	244.767
16.543	104.300	2588.898	9756.029	239.418
16.909	105.000	2625.006	9955.074	240.208
17.274	105.900	2641.372	10114.993	241.290
17.639	107.200	2619.071	10390.966	258.624
18.014	108.200	2601.074	10701.023	251.518
18.378	109.300	2645.129	10778.129	252.638
18.744	111.000	2651.969	10719.936	268.393
19.111	112.200	2631.119	10741.410	252.702
19.477	113.600	2650.402	10652.267	246.499
19.843	115.400	2675.697	10395.564	247.149
20.210	116.800	2650.899	10245.669	246.652
20.571	118.300	2652.364	10164.907	245.595
20.936	119.700	2669.609	9997.436	241.112
21.299	121.700	2689.720	9816.769	245.557
21.663	123.100	2644.301	9673.433	238.666
22.031	124.500	2656.019	9698.995	238.348
22.399	126.400	2683.823	9559.251	230.502
22.764	127.800	2683.109	9446.024	236.514
23.125	129.200	2639.895	9372.611	232.629
23.501	131.000	2623.414	9401.128	231.776
23.884	132.400	2688.179	9234.586	225.637
24.261	134.100	2678.945	9101.325	230.120
24.623	135.400	2629.222	9089.289	227.560
24.999	136.700	2637.564	9168.025	230.604
25.378	138.500	2701.743	9077.597	225.854
25.742	139.700	2680.651	8913.780	225.739
26.105	141.000	2637.042	8943.698	226.554
26.472	142.700	2657.879	8880.436	228.324
26.836	144.000	2675.009	8815.200	237.839
27.208	145.200	2638.252	8758.319	220.542
27.574	146.900	2610.665	8790.135	222.313
27.939	148.100	2689.974	8738.145	221.561
28.304	149.300	2675.022	8579.015	224.542
28.665	151.000	2621.758	8518.594	221.752
29.041	152.200	2637.386	8578.315	221.205
29.407	153.300	2652.262	8562.560	219.766
29.773	154.900	2660.095	8415.199	219.957
30.139	156.100	2617.771	8378.506	221.192
30.504	157.300	2632.622	8393.624	219.065
30.884	158.800	2669.278	8366.610	228.248
31.245	159.900	2660.973	8219.822	216.416
31.610	161.100	2600.157	8234.507	215.588
31.974	162.600	2651.230	8266.081	226.681
32.336	163.700	2644.442	8139.532	213.970
32.706	164.800	2614.817	8102.341	214.505
33.072	166.300	2595.686	8178.441	216.836
33.449	167.400	2652.758	8202.883	217.626
33.816	168.800	2651.536	8059.801	210.481
34.196	169.900	2574.748	7997.749	212.697
34.558	171.000	2587.459	8117.332	220.262
34.923	172.400	2640.175	8073.748	215.168
35.285	173.500	2639.882	7966.660	212.200
35.651	174.500	2583.905	7959.655	212.327
36.017	176.000	2587.790	8033.997	220.823
36.378	177.000	2623.681	7999.660	213.869
36.741	178.100	2580.925	7923.827	209.971
37.106	179.100	2573.703	7993.304	209.678
37.471	180.500	2610.295	7998.501	217.167
37.833	181.500	2604.920	7907.486	209.793
38.198	182.600	2549.046	7873.353	209.615
38.560	183.900	2562.432	7975.843	214.200
38.926	185.000	2604.806	7929.138	208.366
39.294	186.000	2580.989	7847.943	216.683
39.656	187.400	2534.297	7853.713	212.098
40.017	188.400	2562.215	7893.603	214.505
40.378	189.400	2576.454	7891.082	210.583
40.741	190.800	2554.968	7774.620	207.526
41.107	191.800	2544.855	7821.120	208.799
41.474	192.800	2565.234	7887.821	210.557
41.843	194.200	2584.109	7798.118	209.576
42.209	195.200	2532.475	7751.337	211.028
42.594	196.200	2524.006	7833.373	220.453
42.967	197.600	2571.538	7839.767	215.028
43.335	198.600	2565.081	7730.437	214.276
43.701	199.600	2544.575	7728.552	213.079
44.064	200.900	2520.580	7826.839	217.575
44.429	201.900	2571.309	7832.851	215.524
44.806	202.900	2561.476	7680.676	216.772
45.171	204.300	2533.405	7691.998	227.446
45.535	205.300	2530.705	7778.160	219.587
45.917	206.600	2553.911	7800.806	220.861
46.284	207.600	2565.781	7668.525	218.708
46.666	208.600	2537.646	7676.065	228.375
47.031	209.900	2533.087	7796.679	228.159
47.398	210.900	2534.946	7798.348	223.739
47.764	211.900	2566.915	7685.159	226.338
48.128	213.300	2524.451	7751.554	226.605
48.489	214.300	2524.999	7797.189	227.255
48.856	215.300	2547.492	7670.423	228.770
49.222	216.600	2513.982	7681.554	231.343
49.620	217.600	2506.519	7671.849	230.795
49.982	218.900	2513.867	7747.402	233.075
50.347	219.900	2553.618	7669.034	231.356
50.725	220.900	2533.660	7657.737	233.190
51.088	222.200	2509.983	7762.800	230.923
51.455	223.200	2527.101	7767.258	229.407
51.836	224.200	2541.939	7645.790	230.592
52.200	225.500	2519.905	7651.687	232.680
52.561	226.500	2505.360	7732.220	226.236
52.926	227.500	2534.335	7729.125	228.910
53.290	228.800	2551.427	7662.182	227.293
53.656	229.800	2506.862	7614.726	227.917
54.022	230.800	2487.045	7668.729	225.599
54.385	232.100	2530.399	7613.287	223.204
54.751	233.100	2503.780	7544.141	233.878
55.112	234.100	2474.028	7609.733	222.147
55.478	235.100	2502.723	7629.832	226.108
55.859	236.400	2549.198	7593.495	219.931
56.225	237.400	2516.988	7539.033	221.994
56.589	238.700	2479.479	7609.733	219.396
56.967	239.700	2500.673	7604.601	223.510
57.332	240.700	2531.979	7569.652	223.319
57.698	242.000	2497.145	7538.881	224.185
58.061	243.000	2477.505	7606.333	217.651
58.425	244.000	2525.025	7623.718	219.664
58.790	245.300	2538.143	7506.594	218.301
59.151	246.300	2449.650	7515.000	227.114
59.514	247.300	2482.294	7533.429	223.816
59.878	248.300	2533.061	7558.775	226.503
60.245	249.600	2517.867	7467.518	221.218
60.627	250.600	2457.050	7494.749	219.473
60.994	251.900	2485.185	7580.325	220.135
61.359	252.900	2506.417	7528.921	225.370
61.720	253.900	2486.319	7497.984	219.740
62.087	255.200	2469.481	7527.138	220.644
62.454	256.200	2491.184	7574.071	225.713
62.818	257.200	2512.021	7501.677	217.142
63.181	258.500	2462.387	7447.395	219.727
63.544	259.500	2464.221	7539.390	217.588
63.908	260.500	2506.608	7575.600	218.224
64.271	261.500	2499.106	7522.540	216.658
64.636	262.800	2481.058	7474.001	220.632
65.000	263.800	2495.463	7553.349	224.185
65.366	264.800	2521.025	7497.907	221.167
65.730	266.100	2500.507	7459.240	218.428
66.097	267.100	2478.511	7552.547	218.581
66.461	268.100	2517.179	7556.546	219.829
66.823	269.400	2515.740	7455.852	214.162
67.189	270.400	2496.928	7441.676	215.117
67.556	271.400	2499.590	7528.386	217.957
67.918	272.700	2541.365	7513.943	216.938
68.283	273.700	2545.237	7458.730	214.353
68.648	274.700	2515.944	7412.599	215.270
69.033	276.000	2535.749	7526.501	224.020
69.394	277.000	2580.148	7512.363	218.059
69.759	278.000	2603.379	7476.931	216.276
70.123	279.300	2602.577	7531.799	219.689
70.488	280.300	2638.048	7522.476	218.403
70.851	281.300	2667.953	7480.853	219.511
71.215	282.600	2667.062	7394.322	215.308
71.579	283.600	2686.115	7553.056	221.077
71.944	284.600	2758.738	7508.275	219.511
72.312	285.900	2751.084	7453.190	215.371
72.678	286.900	2746.091	7433.983	213.104
73.043	287.900	2744.168	7488.241	218.874
73.405	288.900	2812.945	7500.531	218.696
73.794	290.200	2838.405	7374.835	216.913
74.157	291.200	2804.462	7437.664	220.199
74.524	292.500	2795.598	7510.899	218.123
74.891	293.500	2835.285	7530.742	220.186
75.257	294.500	2870.221	7455.954	213.206
75.624	295.800	2806.016	7499.856	217.906
75.985	296.800	2824.853	7515.433	220.797
76.349	297.800	2820.319	7429.194	219.358
76.717	299.100	2791.255	7383.216	223.434
77.083	300.100	2757.299	7477.657	218.059
77.450	301.100	2762.992	7493.501	220.020
77.814	302.400	2773.551	7417.859	216.581
78.199	303.400	2721.344	7407.848	225.077
78.559	304.400	2718.759	7492.953	222.096
78.924	305.700	2710.518	7478.230	219.944
79.291	306.700	2743.811	7442.389	214.607
79.660	307.700	2694.063	7414.777	218.632
80.021	309.000	2666.743	7478.217	216.811
80.386	310.000	2728.298	7476.727	215.677
80.752	311.000	2717.982	7391.800	213.499
81.115	312.300	2656.732	7406.804	217.448
81.478	313.300	2641.614	7420.852	218.428
81.837	314.300	2689.045	7370.518	218.441
82.202	315.300	2659.343	7388.845	215.563
82.569	316.600	2662.005	7496.150	216.811
82.934	317.600	2711.002	7472.829	217.027
83.301	318.600	2721.675	7456.756	218.721
83.662	319.900	2664.833	7435.448	219.141
84.027	320.900	2673.557	7452.655	219.358
84.391	321.900	2733.660	7509.370	218.466
84.755	323.200	2743.875	7445.026	220.555
85.119	324.200	2693.413	7510.631	219.562
85.483	325.200	2715.027	7502.365	219.294
85.848	326.500	2732.527	7428.685	222.033
86.209	327.500	2702.240	7385.954	219.447
86.575	328.500	2656.057	7480.777	224.020
86.940	329.800	2741.544	7492.940	218.466
87.305	330.800	2720.032	7411.160	217.409
87.665	331.800	2694.407	7420.419	218.683
88.031	332.800	2706.252	7496.124	219.116
88.399	334.100	2726.681	7525.902	226.643
88.757	335.100	2738.004	7423.412	217.116
89.124	336.000	2693.209	7438.619	219.727
89.490	337.400	2711.601	7500.977	216.187
89.855	338.400	2744.435	7446.618	220.644
90.216	339.300	2698.724	7405.110	217.180
90.583	340.700	2688.484	7447.255	219.383
90.945	341.700	2747.416	7435.563	224.593
91.311	342.600	2754.561	7393.316	224.504
91.671	344.000	2703.297	7375.663	219.855
92.031	345.000	2719.918	7476.179	220.517
92.390	345.900	2748.613	7484.305	218.976
92.755	346.900	2750.167	7409.682	215.168
93.119	348.300	2723.242	7440.734	223.281
93.481	349.200	2768.253	7499.385	225.968
93.846	350.200	2793.534	7390.119	221.765
94.235	351.500	2769.259	7404.791	220.453
94.598	352.500	2790.898	7487.413	221.842
94.962	353.500	2799.049	7477.134	227.802
95.377	354.800	2846.684	7501.372	221.994
95.744	356.200	2786.300	7481.057	221.752
96.111	357.200	2803.061	7521.661	226.847
96.476	358.200	2823.032	7514.860	223.994
96.837	359.100	2830.266	7423.870	221.218
97.200	360.500	2810.538	7566.544	225.739
97.571	361.500	2813.365	7536.639	221.727
97.937	362.500	2856.109	7558.227	220.555
98.303	363.800	2849.193	7445.472	223.688
98.668	364.800	2800.667	7441.460	225.204
99.029	365.800	2800.858	7544.803	224.465
99.388	367.100	2857.153	7570.225	229.038
99.750	368.100	2821.555	7496.519	226.032
100.112	369.100	2815.123	7576.122	233.776
100.475	370.400	2872.857	7648.249	224.720
100.838	371.400	2837.399	7613.376	225.370
101.196	372.300	2778.212	7590.603	222.911
101.589	373.700	2819.338	7717.000	235.864
101.947	374.700	2868.374	7745.135	221.651
102.316	375.600	2810.512	7628.023	226.758
102.680	377.000	2812.881	7685.655	226.032
103.047	377.900	2782.721	7769.589	226.503
103.406	378.900	2820.064	7788.655	222.096
103.773	380.200	2801.788	7725.852	227.675
104.139	381.200	2770.558	7779.574	230.133
104.505	382.200	2789.280	7886.280	226.949
104.871	383.500	2820.370	7885.261	228.885
105.234	384.500	2774.837	7895.832	235.164
105.597	385.500	2740.347	7935.290	233.177
105.955	386.500	2796.451	7996.998	223.867
106.319	387.800	2787.803	7954.598	225.879
106.682	388.800	2742.729	8001.863	232.400
107.049	389.800	2758.267	8106.060	228.974
107.414	391.100	2753.631	8091.541	231.891
107.774	392.100	2791.802	8096.279	225.968
108.139	393.100	2755.987	8123.828	231.216
108.498	394.100	2744.321	8268.310	230.757
108.863	395.400	2775.576	8217.682	233.381
109.227	396.400	2760.560	8237.373	231.942
109.589	397.400	2737.953	8356.854	223.344
109.955	398.700	2762.878	8379.919	236.157
110.312	399.700	2780.416	8338.029	234.591
110.669	400.700	2742.665	8357.974	226.312
111.030	402.000	2759.337	8450.059	226.083
111.416	403.000	2785.702	8471.125	229.050
111.778	404.000	2787.421	8412.588	235.979
112.143	405.300	2754.765	8488.485	230.133
112.510	406.300	2730.069	8621.835	230.400
112.876	407.300	2806.207	8604.157	230.413
113.260	408.600	2791.051	8581.270	236.603
113.620	409.600	2768.788	8653.256	225.217
113.988	410.600	2768.991	8751.645	227.726
114.353	411.900	2807.111	8741.545	235.380
114.718	412.900	2750.396	8663.127	227.420
115.080	413.800	2742.907	8813.060	229.445
115.456	415.200	2784.555	8805.571	226.350
115.824	416.200	2796.260	8751.505	232.846
116.182	417.100	2746.435	8786.849	226.529
116.550	418.500	2714.836	8914.990	226.516
116.915	419.400	2785.714	8972.139	236.909
117.281	420.400	2765.119	8866.171	229.089
117.642	421.800	2735.329	8906.533	227.102
118.008	422.700	2726.337	8971.082	230.018
118.374	423.700	2773.156	9026.587	238.679
118.739	425.000	2730.540	8961.809	229.764
119.108	426.000	2690.713	9079.609	224.172
119.474	427.000	2749.224	9075.036	228.414
119.841	428.300	2762.126	9042.660	233.610
120.218	429.300	2712.416	9111.934	228.974
120.584	430.300	2683.453	9210.081	227.866
120.949	431.600	2760.789	9239.235	232.222
121.316	432.600	2738.373	9172.509	229.649
121.679	433.600	2698.928	9210.552	237.291
122.039	434.900	2707.971	9314.596	228.159
122.405	435.900	2748.231	9382.558	240.564
122.786	436.900	2764.151	9300.714	226.732
123.151	438.200	2683.810	9295.912	232.311
123.516	439.200	2710.251	9467.039	227.178
123.883	440.200	2748.193	9479.202	229.827
124.246	441.500	2746.257	9407.980	234.170
124.613	442.500	2705.131	9473.662	231.751
124.978	443.500	2745.161	9578.075	241.456
125.346	444.800	2774.162	9448.227	232.120
125.713	445.800	2711.219	9481.240	230.744
126.079	446.800	2717.014	9620.449	229.713
126.443	448.100	2794.948	9694.461	237.546
126.805	449.100	2792.414	9643.324	232.922
127.171	450.100	2730.922	9604.835	234.654
127.537	451.400	2759.121	9802.568	243.672
127.904	452.400	2811.557	9806.835	233.113
128.271	453.400	2818.663	9730.327	231.687
128.642	454.700	2782.874	9762.525	234.400
129.010	455.700	2808.907	9894.563	245.697
129.370	456.700	2845.232	9912.827	234.795
129.736	458.000	2818.103	9872.313	236.348
130.105	459.000	2840.124	9998.633	239.609
130.471	460.000	2890.357	10063.474	236.132
130.834	461.400	2905.093	9928.264	240.220
131.200	462.300	2869.469	9933.320	232.782
131.567	463.300	2888.446	10051.782	248.384
131.930	464.700	2930.222	10040.892	241.672
132.295	465.600	2927.433	9983.043	237.367
132.661	466.600	2913.525	9992.354	245.913
133.026	467.600	2928.732	10069.982	238.628
133.389	468.900	2955.950	10062.022	233.661
133.755	469.900	2969.985	9881.801	234.387
134.121	470.900	2942.449	9945.611	243.086
134.482	472.200	2980.085	9993.691	237.698
134.850	473.200	2960.446	9865.027	239.545
135.218	474.200	2955.517	9794.035	228.707
135.587	475.500	2954.332	9828.741	232.629
135.950	476.500	2979.194	9754.615	238.017
136.329	477.900	2964.063	9587.195	230.834
136.695	478.800	2934.209	9566.179	232.833
137.061	479.800	2903.374	9566.842	234.247
137.427	480.800	2935.215	9481.966	230.057
137.792	482.200	2925.115	9280.475	222.517
138.153	483.100	2875.162	9218.309	227.102
138.513	484.100	2840.277	9261.307	227.624
138.880	485.500	2870.514	9168.688	225.038
139.249	486.400	2856.886	9032.127	226.605
139.616	487.400	2807.659	9099.083	219.664
139.980	488.700	2832.393	8950.283	226.783
140.340	489.700	2846.200	8800.783	216.938
140.705	490.700	2762.152	8700.508	224.389
141.072	492.000	2758.446	8785.512	218.517
141.437	493.000	2788.211	8682.996	220.084
141.805	494.000	2797.648	8579.079	228.350
142.165	495.300	2756.548	8511.907	227.076
142.525	496.300	2702.660	8561.350	215.996
142.883	497.300	2746.027	8464.171	222.389
143.239	498.300	2725.904	8420.408	218.097
143.598	499.600	2711.575	8416.155	221.778
143.956	500.600	2726.872	8373.793	217.982
144.315	501.600	2720.453	8272.054	212.391
144.674	502.600	2680.460	8165.476	212.162
145.036	503.900	2676.117	8235.246	209.908
145.401	504.900	2721.956	8185.943	221.752
145.760	505.900	2706.226	8089.057	212.837
146.118	506.900	2683.581	8099.195	210.009
146.478	508.200	2687.809	8102.430	210.914
146.838	509.200	2710.098	8004.946	213.869
147.216	510.200	2685.555	7993.890	213.652
147.573	511.500	2683.542	8034.851	207.946
147.937	512.500	2731.266	8008.843	221.409
148.294	513.500	2711.563	7867.099	209.182
148.650	514.800	2666.259	7875.925	210.442
149.009	515.800	2651.892	7979.867	211.398
149.366	516.800	2707.334	7921.242	214.174
149.724	517.700	2683.670	7871.926	199.731
150.088	519.100	2673.748	7872.308	204.304
150.452	520.000	2747.505	7894.266	207.156
150.819	521.000	2751.784	7836.850	207.106
151.182	522.300	2695.298	7754.025	203.921
151.550	523.300	2664.603	7869.532	204.062
151.910	524.300	2718.848	7859.903	177.391
152.276	525.300	2730.922	7729.762	205.373
152.633	526.600	2667.584	7758.342	206.316
152.994	527.600	2680.868	7815.695	209.233
153.363	528.600	2723.089	7762.749	209.564
153.721	529.900	2697.935	7707.358	203.259
154.082	530.900	2673.557	7780.453	204.495
154.441	531.900	2729.317	7786.885	205.883
154.801	532.900	2726.031	7638.467	205.730
155.165	534.200	2674.232	7701.856	202.380
155.528	535.200	2668.157	7739.365	200.967
155.893	536.200	2700.342	7737.174	210.111
156.251	537.500	2706.379	7585.343	200.584
156.611	538.500	2658.834	7703.894	193.860
156.976	539.500	2681.275	7696.329	210.366
157.347	540.800	2691.668	7632.404	199.451
157.709	541.800	2682.638	7631.003	204.189
158.071	542.800	2652.032	7944.715	211.512
158.435	543.800	2669.481	7720.566	205.463
158.793	545.100	2680.256	7652.936	206.889
159.184	546.100	2831.846	7815.593	217.779
159.650	547.800	2617.300	7614.892	205.017
160.018	548.700	2635.870	7748.013	207.207
160.380	549.700	2650.033	7683.974	206.150
160.741	550.700	2635.972	7556.151	207.080
161.103	552.000	2609.251	7634.429	201.158
161.467	553.000	2661.534	7663.851	205.806
161.826	554.000	2647.651	7590.374	206.813
162.204	555.300	2596.323	7595.685	199.948
162.563	556.300	2594.375	7689.171	203.641
162.931	557.300	2641.805	7625.183	199.795
163.298	558.600	2588.465	7567.525	207.106
163.656	559.600	2561.260	7619.311	202.227
164.036	560.600	2588.694	7753.464	222.249
164.413	561.900	2592.541	7730.526	207.959
164.773	562.900	2588.172	7641.766	201.387
165.142	563.900	2568.494	7647.688	202.902
165.510	565.200	2559.999	7714.860	201.782
165.874	566.200	2586.516	7660.183	201.909
166.234	567.200	2573.219	7649.382	201.998
166.603	568.500	2542.919	7707.842	204.762
166.963	569.500	2590.948	7734.920	202.457
167.330	570.500	2585.102	7621.718	199.018
167.698	571.800	2547.963	7657.623	206.278
168.066	572.800	2537.583	7761.909	204.635
168.433	573.800	2562.457	7774.963	201.183
168.801	575.100	2593.228	7666.130	199.591
169.169	576.100	2541.276	7682.000	185.517
169.531	577.100	2538.856	7805.658	206.813
169.895	578.400	2568.571	7775.537	200.546
170.263	579.400	2587.930	7721.903	199.578
170.632	580.400	2537.443	7713.854	199.820
171.000	581.700	2538.882	7746.357	203.641
171.361	582.700	2555.427	7719.433	214.544
171.719	583.700	2529.330	7781.090	203.807
172.078	584.700	2525.636	7818.038	179.951
172.440	586.000	2518.351	7763.119	206.940
172.799	587.000	2549.530	7750.764	197.477
173.162	588.000	2525.674	7756.496	206.316
173.522	589.300	2492.725	7811.122	206.864
173.879	590.300	2549.631	7784.439	209.525
174.235	591.300	2539.621	7808.231	203.628
174.629	592.600	2516.135	8015.682	205.246
