Fri, Sep 15, 2017	3:35 PM
 Notes: HOAc_mass ratios_91517 
 waiting time: 25.000
 time(s)	 temp (K)	 MS1=1.879	 MS2=13.642	 MS3=17.577	 MS4=26.774	 MS5=27.740	 MS6=30.759	 MS7=43.788	 MS8=60.088
0.000	108.700	6009.131	1174.795	1761.041	544.137	9823.901	768.592	4250.419	380.856
0.868	108.600	4521.450	1126.397	1721.278	546.672	9322.289	730.077	4218.437	380.385
1.653	108.500	4405.510	1112.094	1768.378	543.730	9551.813	732.089	4171.975	374.055
2.448	108.400	4398.136	1094.569	1753.349	540.673	9325.486	745.424	4133.524	372.947
3.223	108.400	4546.083	1075.642	1760.978	539.157	9446.584	722.117	4049.043	368.502
3.998	108.300	4445.643	1057.225	1731.824	538.113	9267.879	718.308	4045.018	365.037
4.790	108.200	4554.298	1065.466	1728.487	543.526	9291.862	698.745	3959.569	363.025
5.584	108.100	4440.969	1044.565	1709.968	530.968	9339.025	745.004	3929.142	357.612
6.361	108.100	4438.358	1040.986	1717.394	537.731	9050.633	725.199	3896.677	357.956
7.125	108.000	4347.852	1014.571	1714.477	540.278	9182.112	719.225	3834.905	353.677
7.878	108.000	4556.030	1024.085	1690.278	540.431	9006.120	690.225	3930.568	349.907
8.636	107.900	4376.293	1001.389	1706.058	530.802	9021.034	735.974	3875.216	348.557
9.390	107.800	4316.635	1002.904	1702.505	528.917	8976.049	710.221	3870.096	365.483
10.186	107.800	4439.657	996.192	1659.952	526.013	9134.847	720.512	3814.934	348.786
10.975	107.700	4397.053	963.905	1664.448	530.025	8929.484	688.887	3826.868	349.283
11.764	107.600	4553.062	971.394	1664.066	524.027	9135.955	714.717	3806.897	350.760
12.526	107.500	4370.460	967.586	1659.914	520.537	8978.061	689.155	3752.525	341.284
13.323	107.500	4327.602	953.041	1680.203	530.853	8748.856	704.362	3731.243	349.435
14.129	107.400	4329.474	958.747	1650.171	526.497	8999.407	714.386	3732.809	334.623
14.904	107.400	4449.145	953.818	1676.370	525.593	8852.900	701.853	3740.031	339.807
15.660	107.300	4335.434	953.678	1682.075	524.523	8807.495	701.738	3640.024	348.620
16.414	107.200	4259.665	933.019	1671.071	524.090	8581.117	668.012	3648.736	345.525
17.173	107.200	4375.427	931.262	1670.001	521.021	8920.887	695.561	3602.452	348.404
17.927	107.100	4393.640	929.568	1645.560	517.939	8812.220	666.063	3602.426	332.241
18.681	107.100	4295.913	924.715	1660.576	528.281	8915.130	673.591	3589.919	334.368
19.456	107.000	4400.887	925.301	1653.877	530.115	8685.683	688.658	3592.263	325.669
20.217	107.000	4447.210	916.182	1656.208	524.141	8677.863	698.019	3543.673	330.713
20.972	106.900	4287.558	912.106	1639.994	520.320	8575.895	664.395	3600.376	339.743
21.726	106.900	4416.617	918.462	1681.197	521.543	8891.976	675.297	3559.899	331.350
22.526	106.800	4378.254	922.881	1639.599	523.504	8651.664	681.806	3640.954	339.998
23.310	106.700	4469.613	918.729	1671.593	523.186	8625.262	666.522	3560.065	333.324
24.069	106.700	4286.756	903.929	1695.551	526.459	8675.800	680.608	3489.416	331.490
24.822	106.700	4335.727	892.594	1676.688	525.428	8590.988	641.240	3458.874	331.515
25.583	106.600	4380.279	884.595	1660.462	517.123	8776.048	670.623	3514.405	332.458
26.393	106.600	4442.586	897.714	1679.770	523.759	8638.214	674.775	3554.512	345.398
27.179	106.500	4513.044	900.682	1702.976	529.325	8854.492	684.213	3491.734	283.932
27.941	106.500	4320.571	915.354	1751.196	528.917	8695.898	682.786	3534.834	369.202
28.728	106.400	4535.066	934.471	1841.039	539.833	8780.965	685.945	3504.317	388.778
29.482	106.400	4363.849	944.138	1926.475	541.437	8593.739	688.174	3516.863	409.883
30.249	106.300	4390.392	974.591	2004.129	554.352	8852.378	717.060	3556.435	438.590
30.999	106.200	4479.993	994.753	2096.596	559.421	8633.311	694.708	3594.275	448.079
31.752	106.200	4573.797	1025.919	2128.615	555.014	8930.771	695.052	3540.196	446.487
32.542	106.200	4425.787	1014.724	2160.036	559.740	8625.656	674.278	3505.298	449.850
33.313	106.100	4572.485	1024.735	2159.196	564.134	8644.876	696.937	3556.282	449.799
34.110	106.100	4573.581	1029.040	2106.976	563.624	8763.401	688.722	3570.127	458.090
34.906	106.000	4632.665	1031.701	2147.376	554.772	8536.348	675.285	3586.506	456.676
35.662	106.000	4525.908	1041.649	2135.519	561.867	8871.661	683.067	3583.156	467.642
36.452	105.900	4559.099	1046.004	2189.585	561.153	8593.319	692.313	3557.059	470.215
37.207	105.900	4619.814	1046.094	2188.337	564.783	8730.974	678.953	3546.233	460.943
37.983	105.900	4477.802	1057.378	2171.856	561.523	8668.578	690.785	3583.271	468.215
38.740	105.800	4635.900	1069.299	2192.667	564.911	8822.001	711.036	3552.958	465.719
39.492	105.800	4537.944	1058.817	2205.760	561.484	8649.346	663.924	3523.715	477.921
40.244	105.800	4552.706	1056.703	2079.644	564.809	8782.697	683.818	3598.835	475.475
41.054	105.700	4549.152	1064.982	2188.973	571.011	8732.337	693.281	3616.640	465.261
41.856	105.700	4641.873	1086.774	2184.477	566.070	8627.732	701.560	3588.314	386.142
42.651	105.600	4467.944	1067.313	2217.337	566.439	8756.905	655.187	3601.649	481.652
43.436	105.600	4567.658	1078.712	2209.428	565.127	8560.841	670.992	3648.940	491.905
44.224	105.600	4441.032	1075.005	2137.454	572.336	8787.256	725.020	3577.043	480.914
45.008	105.500	4532.009	1088.366	2183.586	568.056	8693.491	708.590	3571.668	482.022
45.790	105.500	4575.071	1091.652	2233.704	569.050	8777.105	692.683	3622.270	489.536
46.549	105.400	4515.986	1080.558	2212.892	564.694	8743.201	722.830	3640.610	488.785
47.313	105.400	4629.455	1089.092	2197.239	566.617	8631.681	333.171	3578.877	489.944
48.091	105.400	4569.441	1091.983	2246.504	573.992	8818.817	701.968	3662.555	498.388
48.850	105.300	4571.683	1109.687	2243.664	573.699	8566.406	681.538	3597.357	506.336
49.657	105.300	4570.511	1099.599	2286.687	570.375	8745.914	702.311	3623.174	513.201
50.411	105.300	4660.188	1117.380	2303.538	574.170	8628.356	706.374	3717.118	517.506
51.167	105.200	4529.411	1127.747	2328.450	581.430	8869.177	717.595	3686.245	522.294
51.971	105.200	4534.645	1143.897	2317.930	577.201	8485.657	710.692	3711.781	522.447
52.753	105.200	4662.838	1153.080	2357.311	585.518	8719.830	716.296	3643.145	523.033
53.507	105.100	4591.284	1146.635	2329.775	578.564	8650.951	718.448	3702.013	535.744
54.266	105.100	4611.892	1149.182	2364.265	593.160	8858.160	762.848	3735.140	524.587
55.059	105.100	4605.116	1166.759	2389.496	580.003	8893.797	703.840	3737.955	531.707
55.839	105.000	4668.696	1148.813	2331.813	577.889	8598.591	681.424	3702.879	541.768
56.598	105.000	4602.390	1145.604	2373.792	583.773	8788.186	707.381	3680.870	538.508
57.369	105.000	4504.664	1162.900	2374.913	587.734	8548.703	727.721	3758.384	553.817
58.121	104.900	4364.486	1166.071	2400.067	582.971	8843.590	701.968	3716.061	551.970
58.878	104.900	4591.832	1169.523	2410.830	587.085	8726.644	680.558	3722.174	558.186
59.668	104.900	4551.674	1177.419	2421.579	591.339	8711.615	706.820	3632.535	550.557
60.427	104.800	4542.020	1174.311	2432.010	592.612	8737.712	694.631	3736.847	564.745
61.184	104.800	4514.394	1169.714	2400.284	598.611	8870.196	710.386	3788.149	559.307
61.941	104.800	4651.706	1196.957	2453.675	602.228	8686.218	724.384	3850.138	566.413
62.703	104.800	4654.330	1199.390	2469.354	603.082	8862.631	743.909	3850.672	563.815
63.459	104.800	4569.174	1199.975	2463.482	607.247	8600.183	704.298	3888.538	566.541
64.219	104.700	4540.924	1206.254	2510.925	525.377	8850.658	734.726	3850.380	572.463
64.985	104.700	4453.259	1205.745	2529.202	614.328	8736.718	716.767	3951.443	584.079
65.742	104.600	4607.141	1234.389	2556.586	615.360	9067.255	715.583	3976.318	578.500
66.500	104.600	4506.943	1218.825	2541.467	615.946	8901.655	713.290	4082.960	601.744
67.281	104.600	4675.128	1239.153	2556.662	627.243	9076.730	725.746	4113.438	594.166
68.041	104.600	4617.610	1250.959	2606.245	633.904	9121.219	729.758	4158.729	596.612
68.793	104.500	4592.099	1270.433	2603.379	641.075	9142.871	748.341	4217.915	609.552
69.539	104.500	4585.387	1280.164	2635.106	655.798	9170.713	744.405	4343.828	605.960
70.298	104.500	4727.208	1287.679	2685.300	647.494	9096.013	713.558	4404.058	619.155
71.058	104.500	4549.916	1289.258	2701.896	664.510	9223.009	738.610	4516.012	619.945
71.835	104.400	4513.019	1295.741	2717.587	679.067	9167.732	710.959	4513.312	630.338
72.593	104.400	4565.493	1329.199	2750.332	689.460	9449.908	772.808	4607.167	634.452
73.344	104.400	4635.849	1339.745	2795.636	694.988	9311.705	736.878	4631.493	644.386
74.156	104.300	4593.959	1361.295	2815.225	710.565	9490.461	764.223	4791.145	658.243
74.914	104.300	4654.495	1374.592	2930.413	727.058	9445.081	740.215	4932.659	673.884
75.666	104.300	4618.349	1399.798	2917.460	733.541	9450.634	765.217	5104.716	675.654
76.418	104.300	4668.378	1418.775	3024.841	752.684	9521.105	773.686	5275.308	708.973
77.200	104.300	4651.515	1442.617	3084.193	765.573	9777.668	838.655	5321.860	699.153
77.981	104.200	4572.523	1477.184	3144.092	788.677	9624.525	803.057	5621.446	712.348
78.760	104.200	4663.857	1495.716	3182.200	800.853	9992.634	825.626	5705.163	730.230
79.514	104.200	4701.760	1530.066	3245.793	816.188	9824.844	800.853	5989.008	748.659
80.273	104.200	4657.870	1524.386	3322.556	820.862	10103.925	796.943	6190.052	764.351
81.026	104.200	4534.760	1573.485	3450.404	832.707	9927.678	794.358	6475.464	801.758
81.782	104.100	4697.417	1587.546	3519.729	874.495	10355.215	824.709	6761.129	804.305
82.539	104.100	4609.790	1611.770	3603.955	884.264	10335.970	822.391	6987.927	828.237
83.298	104.100	4815.382	1628.926	3667.089	897.638	10562.756	834.261	7206.230	833.242
84.056	104.100	4635.403	1619.145	3740.400	899.332	10382.650	829.001	7419.655	836.706
84.812	104.000	4611.038	1634.989	3793.384	920.843	10493.125	821.945	7620.317	857.620
85.604	104.000	4751.356	1595.124	3814.896	917.392	10577.377	821.474	7632.519	840.769
86.363	104.000	4815.395	1604.434	3797.434	907.738	10501.251	827.753	7604.053	865.402
87.116	104.000	4640.956	1548.636	3821.531	894.428	10484.363	852.805	7744.090	862.918
87.870	104.000	4642.141	1550.852	3822.194	899.013	10300.257	818.926	7587.661	863.453
88.624	104.000	4641.275	1513.712	3798.440	877.947	10475.333	811.310	7448.656	859.224
89.412	103.900	4631.264	1511.509	3774.445	873.171	10126.698	805.362	7368.989	843.775
90.172	103.900	4602.607	1485.679	3623.403	867.707	10323.680	806.916	7089.602	826.619
90.929	103.900	4610.516	1456.144	3598.312	834.376	10033.811	793.186	6944.025	814.953
91.683	103.900	4575.682	1426.608	3558.409	810.457	10007.064	800.586	6639.675	795.555
92.452	103.900	4627.825	1415.018	3533.866	804.993	9852.902	788.945	6495.778	785.022
93.210	103.800	4791.692	1402.867	3438.024	792.727	9910.649	788.321	6237.534	788.843
93.964	103.800	4518.546	1388.284	3391.651	769.700	9788.838	759.715	6048.551	753.550
94.719	103.800	4510.522	1374.605	3327.179	751.894	9895.671	798.510	5836.450	742.699
95.500	103.800	4665.461	1388.233	3258.759	741.782	9572.204	770.337	5762.796	741.896
96.263	103.800	4706.307	1355.729	3248.226	747.768	9708.879	802.025	5473.665	716.130
97.014	103.800	4520.266	1369.345	3220.435	729.262	9347.380	768.668	5466.367	707.814
97.769	103.700	4757.431	1369.854	3163.783	728.727	9422.283	769.534	5315.517	716.678
98.527	103.700	4616.706	1357.729	3190.542	724.473	9197.166	762.147	5161.712	703.216
99.282	103.700	4605.282	1339.885	3166.738	711.456	9481.571	759.065	5040.970	696.580
100.040	103.700	4609.688	1360.404	3091.364	709.062	9196.160	765.930	5026.692	695.688
100.797	103.700	4594.634	1338.191	3127.153	704.235	9134.363	746.813	4880.134	697.102
101.552	103.700	4643.962	1347.897	3022.918	695.255	9175.718	767.331	4886.897	688.900
102.333	103.700	4723.654	1345.120	3063.967	696.007	9063.892	739.515	4766.003	676.698
103.090	103.700	4663.551	1352.329	3055.332	692.912	9412.756	750.022	4654.686	676.788
103.866	103.600	4626.169	1357.933	3055.727	695.650	9039.413	751.652	4700.015	685.894
104.626	103.600	4547.573	1343.108	2997.076	693.307	9435.465	752.391	4606.568	677.106
105.386	103.600	4656.609	1354.379	3008.628	685.423	9155.454	748.112	4636.651	683.945
106.144	103.600	4479.598	1343.604	3400.719	689.333	9311.336	734.305	4607.294	675.921
106.912	103.600	4664.430	1367.434	3038.227	687.130	9171.299	744.495	4627.125	680.277
107.672	103.500	4622.030	1351.221	3022.065	689.881	9340.591	758.543	4650.279	682.035
108.444	103.500	4468.900	1337.160	3031.298	691.142	9067.675	749.857	4732.137	701.331
109.197	103.500	4732.213	1358.481	3038.813	690.454	9495.683	759.753	4685.317	689.358
109.950	103.500	4585.260	1355.258	3028.382	687.193	9171.541	767.713	4737.257	696.083
110.700	103.500	4615.687	1355.513	3069.788	695.765	9455.729	782.335	4872.314	697.930
111.457	103.500	4591.883	1364.696	3109.411	701.789	9164.459	762.669	4950.108	712.131
112.214	103.500	4612.771	1351.781	3144.334	705.979	9373.006	770.884	4967.812	707.151
112.969	103.500	4604.365	1380.782	3094.917	705.113	9262.797	733.325	4979.797	676.304
113.727	103.500	4694.157	1379.712	3141.851	707.304	9533.192	773.801	5004.429	714.768
114.523	103.400	4659.972	1372.338	3131.381	714.487	9319.551	756.390	5075.804	723.874
115.286	103.400	4792.418	1377.267	3144.105	708.005	9430.638	781.532	4871.779	721.696
116.045	103.400	4492.653	1370.682	3122.122	711.596	9417.927	776.871	4926.138	716.869
116.798	103.400	4741.472	1387.532	3133.139	712.004	9460.250	764.427	4861.985	706.858
117.550	103.400	4655.527	1370.376	3168.585	713.035	9345.202	780.208	4888.719	704.426
118.305	103.400	4618.795	1381.151	3176.163	701.012	9208.858	746.647	4759.584	710.425
119.059	103.400	4626.067	1382.591	3179.793	708.731	9345.915	770.133	4778.548	707.266
119.818	103.400	4695.061	1398.881	3151.327	709.775	9210.934	756.913	4758.972	725.415
120.573	103.400	4586.419	1383.266	3132.923	698.911	9361.925	754.263	4742.224	709.011
121.338	103.300	4728.519	1404.485	3174.711	702.248	9197.447	738.114	4733.627	715.303
122.124	103.300	4612.847	1387.711	3154.027	715.417	9459.601	780.564	4680.860	713.290
122.885	103.300	4783.337	1418.889	3147.595	700.452	9233.096	764.007	4637.785	710.526
123.680	103.300	4771.276	1391.684	3143.940	699.573	9506.968	782.105	4547.624	703.394
124.431	103.300	4679.981	1419.998	3153.326	702.935	9035.171	764.070	4688.744	723.849
125.186	103.300	4780.803	1414.126	3173.972	699.891	9451.093	751.041	4535.779	708.489
125.940	103.200	4553.839	1398.498	3139.113	699.115	9172.903	745.182	4605.345	728.548
126.696	103.200	4793.654	1423.475	3178.175	711.265	9349.596	760.670	4517.107	705.585
127.453	103.200	4617.687	1412.483	3157.810	697.624	9199.828	754.276	4553.291	711.150
128.213	103.200	4586.954	1417.794	3185.206	709.265	9443.629	763.459	4545.064	710.883
128.971	103.200	4625.138	1429.728	3188.810	698.185	9138.566	739.604	4567.098	719.849
129.760	103.200	4684.846	1403.160	3184.760	706.349	9312.533	747.691	4475.421	714.042
130.514	103.200	4540.147	1447.712	3217.174	711.634	9270.961	742.801	4502.053	722.168
131.272	103.200	4786.228	1430.378	3166.802	706.132	9435.656	755.588	4539.842	729.758
132.029	103.200	4563.506	1421.488	3217.251	712.883	9225.237	766.949	4499.518	722.384
132.783	103.200	4836.066	1453.902	3244.265	713.558	9414.577	779.201	4589.004	724.893
133.542	103.200	4575.682	1423.271	3261.981	710.794	9188.544	721.123	4626.653	732.611
134.298	103.200	4652.623	1437.013	3295.465	720.550	9248.583	755.117	4600.773	731.236
135.059	103.100	4738.772	1445.776	3266.490	709.418	9343.941	768.579	4656.189	732.026
135.816	103.100	4664.723	1450.922	3316.671	727.237	9305.681	751.500	4603.053	736.165
136.578	103.100	4713.401	1455.418	3304.292	713.507	9483.545	773.712	4670.288	730.905
137.342	103.100	4795.411	1473.847	3826.346	736.127	9285.990	745.450	4653.196	745.717
138.109	103.100	4632.601	1454.437	3306.075	716.640	9409.878	783.366	4687.928	742.686
138.870	103.100	4760.730	1490.175	3321.932	726.842	9198.911	743.221	4691.966	747.882
139.628	103.100	4602.034	1455.609	3401.967	730.688	9544.336	773.088	4652.037	766.159
140.380	103.100	4872.747	1504.911	3300.751	728.740	9357.747	762.389	4752.986	770.872
141.132	103.000	4634.155	1462.690	3314.761	720.907	9600.288	794.612	4693.214	738.356
141.886	103.000	4780.166	1471.911	3297.134	729.924	9343.177	760.262	4691.737	728.778
142.644	103.000	4660.137	1439.637	3274.514	730.956	9582.469	772.311	4708.867	722.422
143.401	103.000	4726.291	1438.109	3269.903	709.877	9286.971	743.781	4750.452	702.044
144.158	103.000	4645.465	1421.513	3251.423	715.545	9414.972	774.935	4727.844	617.818
144.928	103.000	4570.575	1427.716	3223.874	711.087	9303.554	761.345	4698.270	688.289
145.678	103.000	4594.749	1407.923	3244.035	716.054	9382.622	790.104	4725.170	689.460
146.462	103.000	4593.640	1409.006	3284.690	723.492	9298.714	777.979	4847.949	681.487
147.244	103.000	4691.507	1399.021	3224.383	725.059	9595.129	784.856	4791.246	677.819
148.000	103.000	4611.739	1379.890	3231.681	721.531	9131.433	777.253	4783.273	678.609
148.754	103.000	4692.577	1380.871	3255.753	723.798	9409.496	762.109	4783.592	665.936
149.507	103.000	4472.606	1372.542	3266.910	717.939	9118.200	746.532	4718.611	661.478
150.263	103.000	4757.457	1363.537	3270.973	730.523	9333.268	756.250	4704.830	657.696
151.059	102.900	4628.729	1375.165	3258.453	724.167	9383.157	759.422	4790.890	660.956
151.818	102.900	4679.624	1361.486	3279.736	724.142	9169.414	742.801	4741.281	652.041
152.573	102.900	4559.265	1346.687	3256.606	726.460	9369.720	815.437	4753.164	647.685
153.324	102.900	4512.547	1341.286	3273.877	725.887	9190.327	744.036	4751.534	641.024
154.074	102.900	4510.573	1333.186	3276.233	717.544	9313.985	763.523	4851.630	654.168
154.832	102.900	4613.331	1335.708	3318.289	737.642	9240.789	739.795	4839.607	644.857
155.608	102.900	4589.259	1330.320	3296.815	730.383	9335.637	757.409	4863.118	646.908
156.365	102.900	4690.106	1346.394	3327.765	741.043	9132.045	749.347	4933.092	654.919
157.120	102.900	4416.375	1324.296	3295.401	737.566	9541.267	762.669	4862.010	626.338
157.889	102.900	4652.381	1328.372	3268.311	737.005	9198.274	747.424	4852.509	640.998
158.651	102.900	4575.045	1297.346	3300.700	738.126	9329.498	749.755	4845.567	633.051
159.406	102.900	4404.415	1310.209	3355.288	729.593	9126.275	736.776	4871.104	631.420
160.161	102.900	4442.026	1299.129	3366.420	745.730	9382.902	763.854	4792.673	633.305
160.919	102.900	4597.716	1310.591	3370.203	739.349	9169.197	720.397	4770.499	620.352
161.674	102.900	4437.581	1289.296	3289.428	732.573	9394.021	744.584	4764.271	628.389
162.425	102.900	4511.949	1287.628	3328.198	739.999	9174.941	732.586	4789.145	623.728
163.178	102.900	4530.417	1289.118	3352.652	752.264	9442.267	769.280	4815.433	615.130
163.933	102.900	4502.830	1280.164	3324.517	736.802	9168.789	759.154	4797.946	620.824
164.682	102.900	4679.038	1289.016	3384.124	742.304	9538.605	746.303	4744.427	603.515
165.441	102.900	4517.935	1265.670	3392.390	738.317	9169.465	723.212	4713.057	610.927
166.199	102.800	4684.974	1298.250	3394.720	742.317	9344.578	775.266	4535.397	600.127
166.954	102.800	4422.246	1261.633	3401.662	739.922	9122.200	768.732	4609.752	594.434
167.704	102.800	4495.341	1267.402	3369.146	736.458	9353.570	763.803	4520.597	583.926
168.512	102.800	4516.330	1262.448	3371.260	731.440	9012.641	739.655	4490.654	589.568
169.265	102.800	4559.660	1272.318	3364.662	747.933	9345.240	759.727	4432.181	581.162
170.022	102.800	4409.484	1263.658	3309.182	728.969	9076.234	735.159	4430.601	578.933
170.774	102.800	4515.974	1263.225	3389.040	734.216	9074.463	736.534	4408.758	572.030
171.528	102.700	4546.923	1249.011	3373.603	590.396	9302.038	739.349	4384.839	573.304
172.307	102.700	4533.575	1257.480	3391.956	734.178	9125.766	734.611	4345.738	574.157
173.069	102.700	4526.341	1278.967	3421.161	733.809	9172.025	738.699	4333.766	563.382
173.878	102.700	4526.825	1252.985	3408.285	740.954	9005.546	744.125	4256.328	567.496
174.694	102.700	4599.410	1246.209	3366.267	742.495	9137.878	751.296	4304.447	561.726
175.452	102.700	4541.128	1256.347	3386.836	732.242	8984.977	727.835	4219.520	560.033
176.211	102.700	4546.821	1249.125	3359.848	742.533	9183.704	750.493	4214.464	557.918
176.969	102.700	4452.113	1243.929	3430.956	747.029	8986.595	740.266	4103.491	557.498
177.758	102.700	4544.822	1243.954	3437.464	732.446	9187.117	745.641	4144.604	556.313
178.516	102.700	4385.705	1242.401	3416.372	734.140	9006.833	718.130	4055.271	551.958
