Fri, Sep 15, 2017	1:14 PM
 Notes: HOAc_30s_3.9e-09_91517
 waiting time: 25.000
 time(s)	 temp (K)	 MS1=1.879	 MS2=13.596	 MS3=14.613	 MS4=17.526	 MS5=27.740	 MS6=42.664	 MS7=43.686	 MS8=60.088
0.000	100.400	6805.490	1191.493	1002.548	2420.458	8507.246	1166.428	4253.514	511.494
1.239	100.400	4875.383	1164.110	1013.068	2445.307	8798.898	1184.895	4254.813	505.062
1.994	100.400	4956.706	1177.954	1018.150	2400.832	8783.690	1178.387	4355.240	512.398
2.747	100.400	4849.006	1182.781	1016.392	2445.664	8791.994	1162.097	4285.800	517.671
3.495	100.400	4930.099	1178.056	1010.941	2391.954	8884.563	1174.885	4299.543	513.188
4.250	100.400	4796.634	1168.504	1026.518	2448.822	8823.581	1183.482	4310.700	519.161
5.005	100.400	4827.405	1189.977	1028.556	2411.148	8899.694	1197.071	4305.708	516.105
5.762	100.400	4912.192	1161.333	1026.021	2386.732	8925.663	1184.501	4297.607	519.123
6.519	100.400	4831.213	1181.902	1025.588	2405.722	8899.465	1194.231	4346.872	521.390
7.277	100.400	4807.396	1178.476	1028.759	2398.335	8824.230	1191.557	4275.815	527.325
8.032	100.400	4782.191	1185.137	1024.926	2399.023	8851.397	1180.871	4302.039	534.496
8.782	100.400	4818.846	1176.056	1033.701	2449.472	8794.835	1199.109	4321.628	517.365
9.533	100.400	4848.560	1178.514	1038.745	2400.093	8795.115	1198.218	4350.234	517.697
10.283	100.400	4729.513	1163.078	1034.771	2459.547	8794.567	1191.748	4300.091	534.012
11.033	100.400	4841.492	1180.489	1051.914	2458.795	8948.627	1210.827	4351.138	536.126
11.786	100.400	4792.405	1168.784	1056.856	2440.633	8998.057	1213.158	4429.442	535.426
12.541	100.500	4962.310	1194.562	1079.692	2428.202	8913.589	1229.498	4581.210	546.201
13.298	100.500	4947.090	1203.936	1086.188	2473.569	9405.535	1253.647	4885.853	583.710
14.059	100.700	5041.212	1240.528	1140.407	2458.515	9840.726	1306.427	5324.534	606.546
14.815	101.000	4960.641	1321.736	1177.636	2523.993	11402.139	1412.343	6139.374	664.102
15.572	101.700	5056.254	1401.173	1259.862	2440.455	11610.074	1425.156	6865.008	714.258
16.328	102.700	5145.715	1372.962	1340.611	2525.993	11000.558	1403.491	7091.526	740.788
17.088	104.200	5153.064	1460.843	1501.040	2527.890	11286.211	1751.056	7127.570	828.058
17.845	106.300	5166.590	1724.424	1816.980	2600.730	11667.222	1834.161	6933.454	799.249
18.602	108.900	5224.795	1684.317	1836.237	2581.638	11210.646	1669.696	6723.468	741.387
19.362	111.800	5166.220	1589.851	1815.235	2590.898	10847.097	1519.380	6598.447	733.325
20.120	115.000	5218.554	1541.618	1774.084	2471.888	10752.401	1469.135	6380.055	700.923
20.877	117.800	5088.069	1525.430	1745.414	2572.111	10412.975	1419.845	6301.764	693.803
21.631	121.000	5086.019	1479.528	1735.403	2516.542	10307.670	1442.286	6156.326	704.795
22.386	124.200	5093.393	1485.208	1741.567	2550.472	10254.814	1470.052	6177.023	713.469
23.142	127.300	5085.064	1496.709	1741.746	2541.315	10234.779	1525.366	6267.808	742.508
23.897	130.200	5100.322	1504.937	1786.807	2549.377	10316.777	1637.256	6212.927	753.881
24.657	133.200	5127.705	1514.056	1827.475	2564.660	10268.327	1758.660	6143.921	761.485
25.425	136.100	5223.407	1539.185	1834.340	2621.147	10387.719	1897.500	6130.828	766.962
26.184	139.000	5048.574	1545.273	1899.334	2624.789	10248.764	2111.625	6171.495	760.504
26.939	141.900	5091.750	1587.240	1969.792	2805.927	10431.124	2333.800	6115.022	752.327
27.697	144.400	5115.593	1608.650	2029.781	3098.802	10479.281	2595.661	5933.566	779.252
28.456	147.200	5187.567	1629.461	1964.583	2892.166	9735.956	2695.719	5215.650	757.065
29.214	150.000	4929.921	1639.485	1905.562	3792.862	10064.073	3007.851	5212.479	811.552
29.973	152.700	5043.708	1676.446	1931.570	4035.224	10259.654	3403.801	5159.686	840.591
30.732	155.400	5091.890	1735.938	2123.967	4176.127	10123.055	4063.180	5248.268	965.561
31.488	158.000	5213.434	1905.893	2520.376	4707.785	10458.100	5250.548	5613.308	1114.896
32.249	160.600	5070.570	2155.145	3045.219	5276.021	10546.287	6910.872	6070.878	1376.643
33.007	163.200	5286.771	2508.709	3845.094	6120.906	11179.060	9581.017	6651.150	1803.084
33.762	165.700	5317.784	3080.168	5165.787	6894.862	11669.922	14004.131	7687.770	2593.496
34.521	168.300	5575.786	3983.208	7573.893	7798.169	12708.503	22037.277	9371.465	4032.307
35.278	170.400	5593.464	5517.683	11270.698	8879.430	13792.541	34514.183	11823.486	6350.876
36.037	172.900	5908.182	7644.249	16433.074	9928.391	15403.332	49839.086	15226.881	9936.211
36.796	175.400	6113.455	10266.659	22909.622	11694.262	17427.804	67727.658	18846.720	13797.113
37.553	177.800	6439.267	12763.525	27636.335	12169.255	18999.813	71206.046	21005.319	15510.535
38.312	180.200	6624.021	12779.853	26048.329	11664.497	19318.733	53580.864	19527.942	12554.303
39.068	182.700	6512.718	10698.233	18921.751	9860.124	18266.792	35247.369	17532.790	9469.408
39.826	185.100	6352.226	9019.378	14502.865	8472.513	17403.350	25248.238	15625.150	7417.502
40.582	187.500	6128.179	7710.199	11498.604	7617.490	16391.872	17789.850	14389.536	5697.992
41.336	189.500	5942.265	6310.883	8479.773	6756.914	15661.385	10678.352	12589.010	4114.623
42.094	191.900	5918.371	5315.288	6700.784	6051.060	14844.941	8795.701	11884.290	3623.454
42.869	194.200	5789.555	4971.187	6129.949	5859.338	14561.695	7928.565	11189.389	3352.079
43.628	196.600	5772.412	4623.482	5769.355	5444.983	14107.653	7661.291	10950.963	3277.405
44.386	198.900	5679.053	4526.647	5591.605	5356.388	14004.743	7338.307	10679.485	3199.534
45.143	201.300	5781.493	4420.909	5478.709	5205.487	13629.018	7440.160	10419.929	3228.994
45.906	203.700	5581.148	4396.531	5457.579	4977.492	13501.806	7270.014	10187.858	3224.561
46.662	206.000	5645.748	4283.482	5424.095	5100.679	13603.481	7422.533	10166.423	3199.865
47.417	208.300	5627.101	4242.458	5353.064	4926.953	13464.705	7163.104	10071.371	3124.249
48.174	210.700	5662.904	4153.252	5300.131	4871.805	13288.993	7191.838	9875.191	3111.487
48.948	213.000	5621.599	4182.584	5209.384	4789.744	13266.844	7101.957	9799.524	3121.141
49.709	215.300	5616.377	4119.182	5262.482	4762.755	13207.556	7265.977	9785.769	3194.542
50.463	217.300	5588.204	4130.594	5377.492	4716.063	13194.501	7669.098	9879.445	3350.143
51.217	219.600	5637.201	4168.409	5561.954	4810.479	13159.883	7898.940	9873.230	3505.744
51.976	222.000	5646.894	4293.888	5745.640	4667.244	13116.605	8229.285	9969.263	3576.278
52.731	224.300	5685.409	4308.191	5784.524	4785.171	13245.434	8118.465	9951.648	3564.166
53.487	226.600	5855.033	4281.648	5700.132	4661.449	13172.951	7875.085	9820.832	3347.417
54.245	228.900	5753.116	4146.031	5433.367	4560.513	12896.226	7123.507	9650.890	3102.190
55.004	231.200	5787.555	3924.416	5015.293	4457.411	12802.498	6499.472	9425.658	2754.637
55.763	233.500	5597.502	3719.321	4578.662	4392.239	12566.645	5707.736	9132.962	2467.787
56.518	235.900	5658.038	3597.102	4179.477	4137.854	12571.472	5282.173	8974.469	2274.970
57.275	237.800	5484.020	3373.234	3932.466	4148.603	12267.377	4820.680	8649.028	2097.564
58.032	240.100	5683.893	3277.761	3758.129	4015.406	12121.137	4506.485	8595.789	1991.215
58.792	242.500	5430.183	3079.442	3605.598	3949.673	12093.244	4301.848	8400.450	1893.360
59.545	244.800	5629.789	3095.083	3487.251	3926.021	11900.821	4216.794	8276.614	1818.012
60.306	247.100	5544.824	2994.465	3398.554	3845.973	11922.181	4058.901	8119.484	1764.468
61.064	249.400	5621.497	2955.950	3342.068	3824.830	11716.703	3926.098	8048.810	1723.227
61.822	251.700	5536.571	2902.278	3260.988	3832.867	11596.038	3773.082	7940.716	1686.775
62.579	254.000	5649.276	2841.462	3224.714	3664.033	11632.184	3734.338	7934.831	1650.655
63.339	256.300	5569.520	2789.153	3195.624	3763.007	11211.219	3619.722	7691.705	1589.061
64.095	258.300	5563.496	2765.909	3116.442	3666.363	11341.513	3570.955	7675.759	1584.705
64.852	260.600	5585.988	2728.337	3072.030	3626.193	11446.512	3500.777	7585.738	1559.513
65.608	262.900	5671.208	2662.362	3023.096	3611.291	11232.451	3476.221	7552.432	1544.458
66.366	265.300	5533.629	2647.970	2952.269	3653.347	11362.057	3386.340	7482.687	1499.970
67.126	267.600	5792.497	2615.186	2898.559	3539.062	11193.859	3351.798	7392.373	1482.381
67.884	269.900	5664.037	2615.364	2829.719	3595.676	11142.035	3275.635	7341.364	1446.464
68.644	272.200	5575.239	2546.919	2795.496	3457.078	11107.990	3279.506	7319.050	1440.809
69.401	274.500	5730.165	2540.359	2696.648	3484.831	10932.571	3172.699	7161.410	1049.532
70.158	276.800	3650.787	1811.057	2214.841	3241.883	10482.592	3092.675	6778.209	1335.160
70.915	278.800	5629.980	2482.268	2545.518	3324.632	10836.194	3013.034	6875.757	1325.035
71.675	281.100	5753.867	2425.922	2514.835	3459.740	10658.215	3052.517	6933.950	1335.338
72.434	283.400	5755.370	2432.762	2496.266	3325.752	10669.844	3003.508	7038.682	1314.132
73.192	285.700	5763.522	2404.143	2458.630	3438.304	10748.848	2983.970	6903.905	1295.168
73.954	288.000	5893.382	2376.428	2424.916	3301.362	10952.325	2959.248	6943.312	1304.542
74.710	290.300	5800.763	2342.167	2373.932	3441.221	10648.587	2946.015	6844.031	1297.588
75.466	292.600	5859.503	2341.620	2376.225	3392.746	10523.693	2878.678	6859.060	1270.637
76.222	295.000	5927.542	2300.048	2362.011	3344.131	10726.890	2863.165	6784.539	1276.636
76.981	297.300	5917.034	2305.079	2314.058	3333.496	10724.190	2873.889	6813.604	1255.659
77.738	299.200	5948.608	2231.144	2263.342	3371.260	10420.872	2813.964	6726.766	1250.348
78.494	301.600	5971.571	2285.821	2301.767	3292.472	10383.477	2825.337	6706.923	1232.568
79.249	303.900	5736.800	2260.463	2261.215	3325.676	10582.484	2742.499	6601.274	1228.123
80.008	306.200	5922.154	2240.760	2252.758	3299.706	10608.811	2813.391	6694.543	1211.833
80.767	308.500	5788.116	2219.095	2246.962	3312.570	10489.750	2699.412	6575.266	1199.874
81.525	310.800	5778.067	2224.292	2202.398	3265.675	10535.882	2728.464	6532.345	1205.911
82.283	313.100	5930.356	2179.981	2201.379	3302.317	10482.885	2673.939	6494.657	1170.172
83.042	315.400	5984.448	2186.910	2168.328	3217.009	10358.399	2655.981	6533.045	1185.711
83.800	317.700	5750.212	2152.496	2154.318	3325.867	10434.232	2617.491	6433.000	1158.582
84.547	319.700	5824.134	2170.187	2141.887	3235.578	10152.999	2633.425	6486.391	1164.275
85.301	322.000	5740.456	2141.517	2131.481	3222.282	10458.610	2567.029	6401.821	1134.727
86.055	324.300	5863.885	2139.887	2112.988	3232.432	10387.069	2617.071	6453.417	1143.910
86.815	326.600	5816.569	2128.335	2095.908	3260.898	10400.315	2541.888	6328.192	1120.933
87.572	328.900	5868.266	2110.288	2096.418	3160.115	10337.270	2569.513	6330.166	1122.410
88.329	331.200	5620.619	2105.817	2081.554	3248.735	10350.974	2507.397	6258.511	1120.755
89.087	333.500	5747.639	2083.554	2062.908	3190.963	10364.666	2531.482	6326.867	1113.648
89.846	335.800	5705.749	2084.993	2054.782	3168.445	10421.929	2483.122	6233.331	1082.354
90.606	337.800	5736.737	2051.713	2027.654	3166.763	10190.355	2494.177	6289.015	1113.317
91.362	340.100	5735.501	2045.981	2032.914	3207.061	10353.177	2452.911	6289.193	1084.278
92.122	342.400	5719.683	2041.829	2009.644	3110.328	10363.901	2459.929	6226.568	1086.175
92.880	344.800	5706.220	2034.748	1992.539	3185.180	10331.704	2421.044	6250.474	1074.585
93.637	347.100	5803.603	2030.889	1993.698	3156.561	10186.623	2431.794	6178.895	1070.993
94.396	349.400	5788.956	2043.345	1963.309	3166.445	10351.598	2388.897	6216.557	1067.376
95.155	351.700	5795.630	2012.586	1956.151	3188.861	10243.962	2407.913	6198.611	1058.575
95.913	354.000	5825.140	2009.924	1967.104	3078.563	10230.704	2368.163	6186.805	1054.411
96.673	356.300	5758.159	2011.122	1962.812	3187.193	10054.813	2375.078	6167.292	1048.781
97.430	358.300	5846.283	1969.486	1929.417	3128.630	10192.762	2324.795	6197.185	1032.007
98.190	360.600	5735.896	1978.465	1924.539	3097.006	10190.278	2342.575	6094.172	1032.873
98.948	362.900	5837.164	1965.856	1907.638	3075.978	10162.640	2329.049	6213.921	1040.515
99.704	365.200	5755.026	1956.138	1903.868	3158.370	9923.335	2325.623	6158.861	1031.829
100.459	367.500	5758.198	1965.461	1906.810	3038.749	10232.805	2309.804	6156.696	1012.393
101.216	369.800	5671.603	1950.496	1873.632	3122.670	10132.506	2298.672	6135.668	1017.959
101.974	372.100	5793.299	1973.014	1889.438	3096.917	10153.253	2296.966	6115.213	1008.610
102.733	374.400	5850.550	1943.529	1882.649	3056.045	9941.102	2279.007	6109.240	1009.336
103.492	376.800	5875.882	1943.911	1864.869	3076.411	10315.605	2272.779	6012.506	1009.234
104.250	378.700	5719.504	1920.413	1862.296	3122.453	10144.083	2250.974	6042.195	991.467
105.009	381.100	5875.424	1929.494	1863.124	3037.679	10139.740	2254.566	6050.690	990.232
105.767	383.400	5681.180	1927.010	1845.038	3112.175	10125.946	2226.368	5999.744	989.595
106.527	385.700	5825.026	1924.896	1827.997	2998.655	10224.921	2243.931	6025.306	995.224
107.286	388.000	5707.952	1907.549	1841.230	3098.318	10278.211	2221.311	5943.679	975.190
108.042	390.300	5853.657	1921.126	1823.335	3049.754	10173.428	2227.718	5964.261	979.673
108.804	392.600	5778.283	1900.162	1829.360	3042.672	10237.543	2215.936	5851.097	965.192
109.564	394.900	5762.630	1879.541	1830.162	3044.022	10145.178	2235.436	5879.652	975.139
110.322	397.200	5587.771	1886.024	1792.653	3058.109	10193.157	2195.749	5802.151	949.933
111.079	399.500	5725.911	1867.658	1794.653	2967.145	10310.243	2218.255	5959.701	969.777
111.839	401.500	5631.839	1875.402	1789.762	3086.651	10309.020	2191.444	5841.379	957.766
112.598	403.800	5725.338	1870.448	1784.298	3029.617	10366.360	2201.914	5804.304	956.047
113.352	406.100	5493.216	1880.255	1784.209	3028.496	10507.378	2180.949	5793.962	947.857
114.108	408.400	5649.632	1845.077	1770.645	3045.041	10441.798	2179.256	5803.896	959.753
114.874	410.700	5679.818	1860.526	1769.575	3056.822	10531.309	2164.214	5783.238	935.681
115.633	413.000	5782.906	1822.266	1770.925	3023.848	10484.388	2184.796	5749.244	941.273
116.391	415.300	5616.174	1855.189	1763.512	3042.634	10647.109	2179.345	5727.057	938.241
117.147	417.600	5765.114	1839.371	1735.237	3014.002	10612.721	2179.128	5726.573	930.077
117.906	419.900	5725.401	1836.378	1750.891	2979.385	10480.453	2179.765	5732.878	928.664
118.663	422.200	5563.241	1817.744	1761.258	3078.793	10723.592	2184.579	5711.493	924.983
119.421	424.200	5674.303	1845.764	1753.693	3049.843	10668.838	2149.108	5734.431	928.154
120.179	426.500	5662.993	1821.833	1752.330	3002.934	10797.794	2161.781	5687.676	924.970
120.938	428.800	5664.776	1840.046	1731.353	3039.679	10643.772	2164.761	5688.529	924.040
121.696	431.100	5637.189	1827.946	1739.453	3019.263	10785.835	2127.163	5668.559	922.499
122.453	433.400	5536.418	1816.904	1748.076	3030.139	10744.709	2151.375	5723.669	912.883
123.208	435.700	5541.665	1800.486	1679.885	3049.193	10673.181	2123.712	5614.123	913.240
123.966	438.000	5589.147	1813.541	1721.367	2987.230	10741.817	2144.854	5626.146	886.086
124.726	440.300	5587.860	1816.165	1714.286	3085.581	10800.609	2115.573	5601.119	906.502
125.486	442.600	5607.411	1793.354	1720.769	2957.516	10831.673	2120.884	5607.322	901.586
126.246	444.600	5590.191	1800.499	1706.135	3050.110	10681.026	2091.960	5578.461	895.600
127.005	446.900	5586.281	1807.020	1702.785	2971.666	10557.508	2130.857	5684.403	892.518
127.766	449.300	5373.251	1811.363	1689.450	3069.317	10578.956	2105.906	5594.611	889.907
128.523	451.600	5521.669	1797.200	1695.092	3037.628	10627.317	2112.313	5605.679	893.473
129.284	453.900	5520.153	1783.126	1691.335	3049.855	10473.995	2081.873	5538.800	884.264
130.042	456.200	5491.471	1788.590	1691.857	3045.270	10553.853	2098.430	5530.967	892.810
130.800	458.500	5506.615	1788.960	1673.504	3108.532	10622.400	2071.760	5539.233	882.596
131.559	460.800	5523.834	1801.174	1657.685	3000.604	10519.617	2098.825	5543.627	872.318
132.317	463.100	5316.065	1769.371	1655.303	3099.298	10492.514	2052.439	5530.992	875.005
133.074	465.400	5553.892	1780.808	1676.510	3051.142	10372.651	2067.315	5530.381	883.526
133.829	467.400	5455.350	1793.570	1673.071	3027.376	10504.958	2055.241	5480.263	874.916
134.583	469.700	5468.507	1764.952	1673.733	3033.718	10311.975	2038.887	5507.748	878.584
135.341	472.000	5476.824	1799.429	1671.810	3084.843	10365.341	2033.894	5499.711	858.906
136.101	474.300	5492.146	1784.324	1662.347	3077.175	10348.159	2064.869	5492.630	869.172
136.856	476.700	5366.042	1783.801	1660.500	3103.909	10419.623	2024.813	5494.540	868.382
137.629	479.000	5487.204	1766.977	1661.086	3048.977	10267.143	2032.735	5421.854	874.317
138.386	481.300	5423.560	1781.280	1667.874	3093.771	10284.961	2037.881	5490.949	859.912
139.147	483.600	5550.415	1787.126	1657.558	3100.699	10234.907	2046.478	5385.593	873.948
139.900	485.900	5334.482	1775.039	1641.344	3115.041	10294.717	2030.214	5386.497	853.340
140.672	488.200	5386.230	1763.003	1635.282	3131.598	10187.298	2031.347	5393.579	858.078
141.427	490.500	5482.734	1824.125	1656.119	3116.352	9918.877	2002.384	5404.774	856.715
142.187	492.500	5368.602	1779.764	1650.718	3115.690	9906.294	2043.447	5417.459	861.109
142.941	494.800	5503.864	1784.833	1658.258	3128.248	9993.360	2007.148	5392.241	859.721
143.698	497.100	5448.320	1795.252	1636.059	3102.699	9985.043	1990.718	5484.275	857.314
144.458	499.400	5432.858	1815.159	1645.102	3125.281	10175.657	2031.653	5432.845	848.488
145.211	501.700	5441.608	1772.275	1652.463	3195.076	10004.288	2006.282	5360.528	851.392
145.973	504.000	5441.340	1800.970	1649.406	3086.231	10187.629	2023.756	5380.715	849.698
146.729	506.300	5469.959	1794.589	1620.813	3184.187	9872.427	1979.242	5376.079	859.008
147.486	508.600	5495.114	1807.109	1634.658	3128.312	10068.174	2018.114	5401.985	850.627
148.242	510.600	5401.781	1797.939	1653.571	3238.266	9975.312	1993.189	5338.965	840.031
148.996	512.900	5484.848	1813.070	1637.256	3167.489	10061.666	2014.688	5391.655	851.124
149.755	515.200	5395.655	1796.691	1637.078	3184.926	10045.108	1974.644	5369.991	854.117
150.514	517.600	5517.224	1807.886	1649.343	3211.468	9984.317	2016.203	5446.116	842.998
151.277	519.900	5365.648	1808.472	1657.443	3174.978	10045.274	1984.515	5334.711	846.577
152.032	522.200	5441.977	1819.871	1630.480	3213.009	10008.656	1997.532	5339.207	857.416
152.790	524.500	5430.018	1807.746	1605.478	3185.359	9996.251	1985.598	5320.191	846.947
153.541	526.800	5421.917	1817.795	1646.337	3239.425	9733.740	2007.645	5434.526	854.576
154.289	528.800	5226.795	1825.386	1655.851	3289.976	9858.927	1974.568	5356.006	846.119
155.046	531.100	5404.774	1837.422	1661.162	3238.342	9981.235	1995.749	5392.916	846.794
155.804	533.400	5406.341	1820.559	1643.560	3305.909	9999.881	1990.718	5318.637	849.761
156.560	535.700	5491.700	1841.701	1655.571	3265.942	9834.753	2016.420	5383.950	858.040
157.320	538.000	5385.644	1846.567	1671.071	3262.860	9923.730	1981.178	5316.485	844.488
158.080	540.300	5330.419	1831.767	1646.490	3282.449	9997.588	2013.351	5313.479	858.053
158.840	542.600	5439.290	1854.234	1639.230	3290.230	9970.689	1999.646	5269.233	846.513
159.599	544.900	5433.431	1834.200	1653.724	3291.428	9831.569	2012.039	5341.372	860.269
160.356	547.200	5461.426	1861.800	1632.289	3317.079	9950.158	1983.611	5280.517	845.380
161.114	549.200	5437.494	1858.348	1648.400	3300.178	9892.627	2015.923	5261.973	847.953
161.873	551.500	5375.684	1877.427	1664.321	3279.392	9954.858	1983.878	5328.266	835.509
162.633	553.800	5416.135	1871.874	1649.852	3293.746	9845.452	2017.248	5307.429	850.067
163.394	556.100	5345.397	1876.790	1664.983	3319.282	9897.251	2002.321	5302.653	855.887
164.145	558.400	5414.110	1875.135	1666.473	3400.897	9893.073	1997.494	5256.891	853.862
164.903	560.700	5397.960	1929.608	1660.513	3305.158	10118.636	2012.153	5275.410	854.920
165.660	563.100	5432.055	1885.400	1633.944	3427.173	9775.414	2019.935	5271.640	853.073
166.420	565.400	5401.946	1924.310	1672.612	3379.386	9994.735	1996.245	5261.973	842.119
167.181	567.700	5381.428	1896.481	1687.145	3307.921	10004.110	2018.955	5273.716	854.181
167.938	570.000	5518.676	1925.405	1637.447	3387.142	9917.412	2023.209	5329.922	854.410
168.699	572.000	5454.472	1918.413	1679.337	3422.307	9900.206	2009.288	5155.292	843.635
169.452	574.300	5282.886	1930.576	1659.150	3407.317	10038.511	2024.176	5292.821	846.475
170.207	576.600	5409.958	1928.755	1661.659	3490.931	9873.064	1994.564	5259.871	855.798
